# E (eV)   ldos(E)   pdos(E)    pdos(E)    pdos(E)   
  -6.084 -0.287E-09 -0.958E-10 -0.958E-10 -0.958E-10
  -6.074 -0.926E-09 -0.309E-09 -0.309E-09 -0.309E-09
  -6.064 -0.285E-08 -0.949E-09 -0.949E-09 -0.949E-09
  -6.054 -0.836E-08 -0.279E-08 -0.279E-08 -0.279E-08
  -6.044 -0.234E-07 -0.781E-08 -0.781E-08 -0.781E-08
  -6.034 -0.627E-07 -0.209E-07 -0.209E-07 -0.209E-07
  -6.024 -0.160E-06 -0.533E-07 -0.533E-07 -0.533E-07
  -6.014 -0.389E-06 -0.130E-06 -0.130E-06 -0.130E-06
  -6.004 -0.903E-06 -0.301E-06 -0.301E-06 -0.301E-06
  -5.994 -0.199E-05 -0.664E-06 -0.664E-06 -0.664E-06
  -5.984 -0.419E-05 -0.140E-05 -0.140E-05 -0.140E-05
  -5.974 -0.836E-05 -0.279E-05 -0.279E-05 -0.279E-05
  -5.964 -0.158E-04 -0.528E-05 -0.528E-05 -0.528E-05
  -5.954 -0.284E-04 -0.948E-05 -0.948E-05 -0.948E-05
  -5.944 -0.483E-04 -0.161E-04 -0.161E-04 -0.161E-04
  -5.934 -0.771E-04 -0.257E-04 -0.257E-04 -0.257E-04
  -5.924 -0.115E-03 -0.384E-04 -0.384E-04 -0.384E-04
  -5.914 -0.160E-03 -0.534E-04 -0.534E-04 -0.534E-04
  -5.904 -0.203E-03 -0.678E-04 -0.678E-04 -0.678E-04
  -5.894 -0.229E-03 -0.765E-04 -0.765E-04 -0.765E-04
  -5.884 -0.214E-03 -0.714E-04 -0.714E-04 -0.714E-04
  -5.874 -0.126E-03 -0.421E-04 -0.421E-04 -0.421E-04
  -5.864  0.691E-04  0.230E-04  0.230E-04  0.230E-04
  -5.854  0.402E-03  0.134E-03  0.134E-03  0.134E-03
  -5.844  0.887E-03  0.296E-03  0.296E-03  0.296E-03
  -5.834  0.151E-02  0.505E-03  0.505E-03  0.505E-03
  -5.824  0.224E-02  0.748E-03  0.748E-03  0.748E-03
  -5.814  0.300E-02  0.100E-02  0.100E-02  0.100E-02
  -5.804  0.369E-02  0.123E-02  0.123E-02  0.123E-02
  -5.794  0.422E-02  0.141E-02  0.141E-02  0.141E-02
  -5.784  0.448E-02  0.149E-02  0.149E-02  0.149E-02
  -5.774  0.444E-02  0.148E-02  0.148E-02  0.148E-02
  -5.764  0.410E-02  0.137E-02  0.137E-02  0.137E-02
  -5.754  0.354E-02  0.118E-02  0.118E-02  0.118E-02
  -5.744  0.288E-02  0.959E-03  0.959E-03  0.959E-03
  -5.734  0.227E-02  0.758E-03  0.758E-03  0.758E-03
  -5.724  0.189E-02  0.631E-03  0.631E-03  0.631E-03
  -5.714  0.186E-02  0.620E-03  0.620E-03  0.620E-03
  -5.704  0.223E-02  0.744E-03  0.744E-03  0.744E-03
  -5.694  0.298E-02  0.993E-03  0.993E-03  0.993E-03
  -5.684  0.400E-02  0.133E-02  0.133E-02  0.133E-02
  -5.674  0.512E-02  0.171E-02  0.171E-02  0.171E-02
  -5.664  0.621E-02  0.207E-02  0.207E-02  0.207E-02
  -5.654  0.718E-02  0.239E-02  0.239E-02  0.239E-02
  -5.644  0.808E-02  0.269E-02  0.269E-02  0.269E-02
  -5.634  0.909E-02  0.303E-02  0.303E-02  0.303E-02
  -5.624  0.105E-01  0.348E-02  0.348E-02  0.348E-02
  -5.614  0.124E-01  0.414E-02  0.414E-02  0.414E-02
  -5.604  0.151E-01  0.504E-02  0.504E-02  0.504E-02
  -5.594  0.184E-01  0.615E-02  0.615E-02  0.615E-02
  -5.584  0.221E-01  0.735E-02  0.735E-02  0.735E-02
  -5.574  0.254E-01  0.848E-02  0.848E-02  0.848E-02
  -5.564  0.280E-01  0.932E-02  0.932E-02  0.932E-02
  -5.554  0.291E-01  0.969E-02  0.969E-02  0.969E-02
  -5.544  0.285E-01  0.950E-02  0.950E-02  0.950E-02
  -5.534  0.262E-01  0.873E-02  0.873E-02  0.873E-02
  -5.524  0.225E-01  0.749E-02  0.749E-02  0.749E-02
  -5.514  0.179E-01  0.596E-02  0.596E-02  0.596E-02
  -5.504  0.131E-01  0.436E-02  0.436E-02  0.436E-02
  -5.494  0.871E-02  0.290E-02  0.290E-02  0.290E-02
  -5.484  0.519E-02  0.173E-02  0.173E-02  0.173E-02
  -5.474  0.276E-02  0.921E-03  0.921E-03  0.921E-03
  -5.464  0.143E-02  0.478E-03  0.478E-03  0.478E-03
  -5.454  0.104E-02  0.346E-03  0.346E-03  0.346E-03
  -5.444  0.132E-02  0.438E-03  0.438E-03  0.438E-03
  -5.434  0.203E-02  0.675E-03  0.675E-03  0.675E-03
  -5.424  0.305E-02  0.102E-02  0.102E-02  0.102E-02
  -5.414  0.443E-02  0.148E-02  0.148E-02  0.148E-02
  -5.404  0.644E-02  0.215E-02  0.215E-02  0.215E-02
  -5.394  0.945E-02  0.315E-02  0.315E-02  0.315E-02
  -5.384  0.138E-01  0.461E-02  0.461E-02  0.461E-02
  -5.374  0.198E-01  0.661E-02  0.661E-02  0.661E-02
  -5.364  0.273E-01  0.912E-02  0.912E-02  0.912E-02
  -5.354  0.359E-01  0.120E-01  0.120E-01  0.120E-01
  -5.344  0.444E-01  0.148E-01  0.148E-01  0.148E-01
  -5.334  0.520E-01  0.173E-01  0.173E-01  0.173E-01
  -5.324  0.573E-01  0.191E-01  0.191E-01  0.191E-01
  -5.314  0.594E-01  0.198E-01  0.198E-01  0.198E-01
  -5.304  0.579E-01  0.193E-01  0.193E-01  0.193E-01
  -5.294  0.531E-01  0.177E-01  0.177E-01  0.177E-01
  -5.284  0.458E-01  0.153E-01  0.153E-01  0.153E-01
  -5.274  0.374E-01  0.125E-01  0.125E-01  0.125E-01
  -5.264  0.292E-01  0.974E-02  0.974E-02  0.974E-02
  -5.254  0.228E-01  0.760E-02  0.760E-02  0.760E-02
  -5.244  0.190E-01  0.632E-02  0.632E-02  0.632E-02
  -5.234  0.180E-01  0.601E-02  0.601E-02  0.601E-02
  -5.224  0.196E-01  0.654E-02  0.654E-02  0.654E-02
  -5.214  0.229E-01  0.765E-02  0.765E-02  0.765E-02
  -5.204  0.269E-01  0.897E-02  0.897E-02  0.897E-02
  -5.194  0.306E-01  0.102E-01  0.102E-01  0.102E-01
  -5.184  0.334E-01  0.111E-01  0.111E-01  0.111E-01
  -5.174  0.352E-01  0.117E-01  0.117E-01  0.117E-01
  -5.164  0.366E-01  0.122E-01  0.122E-01  0.122E-01
  -5.154  0.381E-01  0.127E-01  0.127E-01  0.127E-01
  -5.144  0.403E-01  0.134E-01  0.134E-01  0.134E-01
  -5.134  0.433E-01  0.144E-01  0.144E-01  0.144E-01
  -5.124  0.469E-01  0.156E-01  0.156E-01  0.156E-01
  -5.114  0.501E-01  0.167E-01  0.167E-01  0.167E-01
  -5.104  0.519E-01  0.173E-01  0.173E-01  0.173E-01
  -5.094  0.513E-01  0.171E-01  0.171E-01  0.171E-01
  -5.084  0.480E-01  0.160E-01  0.160E-01  0.160E-01
  -5.074  0.420E-01  0.140E-01  0.140E-01  0.140E-01
  -5.064  0.341E-01  0.114E-01  0.114E-01  0.114E-01
  -5.054  0.254E-01  0.847E-02  0.847E-02  0.847E-02
  -5.044  0.172E-01  0.574E-02  0.574E-02  0.574E-02
  -5.034  0.106E-01  0.354E-02  0.354E-02  0.354E-02
  -5.024  0.619E-02  0.206E-02  0.206E-02  0.206E-02
  -5.014  0.407E-02  0.136E-02  0.136E-02  0.136E-02
  -5.004  0.396E-02  0.132E-02  0.132E-02  0.132E-02
  -4.994  0.529E-02  0.176E-02  0.176E-02  0.176E-02
  -4.984  0.751E-02  0.250E-02  0.250E-02  0.250E-02
  -4.974  0.103E-01  0.343E-02  0.343E-02  0.343E-02
  -4.964  0.138E-01  0.460E-02  0.460E-02  0.460E-02
  -4.954  0.186E-01  0.621E-02  0.621E-02  0.621E-02
  -4.944  0.257E-01  0.857E-02  0.857E-02  0.857E-02
  -4.934  0.360E-01  0.120E-01  0.120E-01  0.120E-01
  -4.924  0.499E-01  0.166E-01  0.166E-01  0.166E-01
  -4.914  0.673E-01  0.224E-01  0.224E-01  0.224E-01
  -4.904  0.866E-01  0.289E-01  0.289E-01  0.289E-01
  -4.894  0.106E+00  0.352E-01  0.352E-01  0.352E-01
  -4.884  0.122E+00  0.405E-01  0.405E-01  0.405E-01
  -4.874  0.132E+00  0.439E-01  0.439E-01  0.439E-01
  -4.864  0.134E+00  0.446E-01  0.446E-01  0.446E-01
  -4.854  0.128E+00  0.425E-01  0.425E-01  0.425E-01
  -4.844  0.114E+00  0.379E-01  0.379E-01  0.379E-01
  -4.834  0.945E-01  0.315E-01  0.315E-01  0.315E-01
  -4.824  0.727E-01  0.242E-01  0.242E-01  0.242E-01
  -4.814  0.516E-01  0.172E-01  0.172E-01  0.172E-01
  -4.804  0.337E-01  0.112E-01  0.112E-01  0.112E-01
  -4.794  0.211E-01  0.703E-02  0.703E-02  0.703E-02
  -4.784  0.145E-01  0.484E-02  0.484E-02  0.484E-02
  -4.774  0.139E-01  0.463E-02  0.463E-02  0.463E-02
  -4.764  0.181E-01  0.605E-02  0.605E-02  0.605E-02
  -4.754  0.258E-01  0.861E-02  0.861E-02  0.861E-02
  -4.744  0.353E-01  0.118E-01  0.118E-01  0.118E-01
  -4.734  0.451E-01  0.150E-01  0.150E-01  0.150E-01
  -4.724  0.541E-01  0.180E-01  0.180E-01  0.180E-01
  -4.714  0.616E-01  0.205E-01  0.205E-01  0.205E-01
  -4.704  0.676E-01  0.225E-01  0.225E-01  0.225E-01
  -4.694  0.721E-01  0.240E-01  0.240E-01  0.240E-01
  -4.684  0.755E-01  0.252E-01  0.252E-01  0.252E-01
  -4.674  0.780E-01  0.260E-01  0.260E-01  0.260E-01
  -4.664  0.795E-01  0.265E-01  0.265E-01  0.265E-01
  -4.654  0.797E-01  0.266E-01  0.266E-01  0.266E-01
  -4.644  0.784E-01  0.261E-01  0.261E-01  0.261E-01
  -4.634  0.752E-01  0.251E-01  0.251E-01  0.251E-01
  -4.624  0.700E-01  0.233E-01  0.233E-01  0.233E-01
  -4.614  0.630E-01  0.210E-01  0.210E-01  0.210E-01
  -4.604  0.546E-01  0.182E-01  0.182E-01  0.182E-01
  -4.594  0.455E-01  0.152E-01  0.152E-01  0.152E-01
  -4.584  0.365E-01  0.122E-01  0.122E-01  0.122E-01
  -4.574  0.281E-01  0.936E-02  0.936E-02  0.936E-02
  -4.564  0.207E-01  0.689E-02  0.689E-02  0.689E-02
  -4.554  0.144E-01  0.481E-02  0.481E-02  0.481E-02
  -4.544  0.953E-02  0.318E-02  0.318E-02  0.318E-02
  -4.534  0.619E-02  0.206E-02  0.206E-02  0.206E-02
  -4.524  0.482E-02  0.161E-02  0.161E-02  0.161E-02
  -4.514  0.606E-02  0.202E-02  0.202E-02  0.202E-02
  -4.504  0.107E-01  0.356E-02  0.356E-02  0.356E-02
  -4.494  0.193E-01  0.645E-02  0.645E-02  0.645E-02
  -4.484  0.323E-01  0.108E-01  0.108E-01  0.108E-01
  -4.474  0.491E-01  0.164E-01  0.164E-01  0.164E-01
  -4.464  0.687E-01  0.229E-01  0.229E-01  0.229E-01
  -4.454  0.891E-01  0.297E-01  0.297E-01  0.297E-01
  -4.444  0.108E+00  0.360E-01  0.360E-01  0.360E-01
  -4.434  0.123E+00  0.409E-01  0.409E-01  0.409E-01
  -4.424  0.131E+00  0.438E-01  0.438E-01  0.438E-01
  -4.414  0.133E+00  0.444E-01  0.444E-01  0.444E-01
  -4.404  0.129E+00  0.429E-01  0.429E-01  0.429E-01
  -4.394  0.120E+00  0.399E-01  0.399E-01  0.399E-01
  -4.384  0.109E+00  0.363E-01  0.363E-01  0.363E-01
  -4.374  0.991E-01  0.330E-01  0.330E-01  0.330E-01
  -4.364  0.927E-01  0.309E-01  0.309E-01  0.309E-01
  -4.354  0.908E-01  0.303E-01  0.303E-01  0.303E-01
  -4.344  0.932E-01  0.311E-01  0.311E-01  0.311E-01
  -4.334  0.984E-01  0.328E-01  0.328E-01  0.328E-01
  -4.324  0.104E+00  0.347E-01  0.347E-01  0.347E-01
  -4.314  0.109E+00  0.363E-01  0.363E-01  0.363E-01
  -4.304  0.111E+00  0.370E-01  0.370E-01  0.370E-01
  -4.294  0.110E+00  0.368E-01  0.368E-01  0.368E-01
  -4.284  0.109E+00  0.362E-01  0.362E-01  0.362E-01
  -4.274  0.106E+00  0.355E-01  0.355E-01  0.355E-01
  -4.264  0.106E+00  0.353E-01  0.353E-01  0.353E-01
  -4.254  0.107E+00  0.357E-01  0.357E-01  0.357E-01
  -4.244  0.111E+00  0.368E-01  0.368E-01  0.368E-01
  -4.234  0.114E+00  0.381E-01  0.381E-01  0.381E-01
  -4.224  0.117E+00  0.390E-01  0.390E-01  0.390E-01
  -4.214  0.116E+00  0.386E-01  0.386E-01  0.386E-01
  -4.204  0.110E+00  0.366E-01  0.366E-01  0.366E-01
  -4.194  0.984E-01  0.328E-01  0.328E-01  0.328E-01
  -4.184  0.822E-01  0.274E-01  0.274E-01  0.274E-01
  -4.174  0.632E-01  0.211E-01  0.211E-01  0.211E-01
  -4.164  0.437E-01  0.146E-01  0.146E-01  0.146E-01
  -4.154  0.265E-01  0.883E-02  0.883E-02  0.883E-02
  -4.144  0.137E-01  0.456E-02  0.456E-02  0.456E-02
  -4.134  0.684E-02  0.228E-02  0.228E-02  0.228E-02
  -4.124  0.668E-02  0.223E-02  0.223E-02  0.223E-02
  -4.114  0.130E-01  0.434E-02  0.434E-02  0.434E-02
  -4.104  0.248E-01  0.828E-02  0.828E-02  0.828E-02
  -4.094  0.405E-01  0.135E-01  0.135E-01  0.135E-01
  -4.084  0.579E-01  0.193E-01  0.193E-01  0.193E-01
  -4.074  0.746E-01  0.249E-01  0.249E-01  0.249E-01
  -4.064  0.881E-01  0.294E-01  0.294E-01  0.294E-01
  -4.054  0.968E-01  0.323E-01  0.323E-01  0.323E-01
  -4.044  0.996E-01  0.332E-01  0.332E-01  0.332E-01
  -4.034  0.966E-01  0.322E-01  0.322E-01  0.322E-01
  -4.024  0.891E-01  0.297E-01  0.297E-01  0.297E-01
  -4.014  0.792E-01  0.264E-01  0.264E-01  0.264E-01
  -4.004  0.694E-01  0.231E-01  0.231E-01  0.231E-01
  -3.994  0.618E-01  0.206E-01  0.206E-01  0.206E-01
  -3.984  0.577E-01  0.192E-01  0.192E-01  0.192E-01
  -3.974  0.576E-01  0.192E-01  0.192E-01  0.192E-01
  -3.964  0.607E-01  0.202E-01  0.202E-01  0.202E-01
  -3.954  0.658E-01  0.219E-01  0.219E-01  0.219E-01
  -3.944  0.715E-01  0.238E-01  0.238E-01  0.238E-01
  -3.934  0.772E-01  0.257E-01  0.257E-01  0.257E-01
  -3.924  0.832E-01  0.277E-01  0.277E-01  0.277E-01
  -3.914  0.908E-01  0.303E-01  0.303E-01  0.303E-01
  -3.904  0.101E+00  0.338E-01  0.338E-01  0.338E-01
  -3.894  0.116E+00  0.387E-01  0.387E-01  0.387E-01
  -3.884  0.135E+00  0.450E-01  0.450E-01  0.450E-01
  -3.874  0.157E+00  0.522E-01  0.522E-01  0.522E-01
  -3.864  0.178E+00  0.593E-01  0.593E-01  0.593E-01
  -3.854  0.195E+00  0.650E-01  0.650E-01  0.650E-01
  -3.844  0.204E+00  0.679E-01  0.679E-01  0.679E-01
  -3.834  0.202E+00  0.672E-01  0.672E-01  0.672E-01
  -3.824  0.188E+00  0.628E-01  0.628E-01  0.628E-01
  -3.814  0.166E+00  0.554E-01  0.554E-01  0.554E-01
  -3.804  0.139E+00  0.463E-01  0.463E-01  0.463E-01
  -3.794  0.112E+00  0.374E-01  0.374E-01  0.374E-01
  -3.784  0.907E-01  0.302E-01  0.302E-01  0.302E-01
  -3.774  0.786E-01  0.262E-01  0.262E-01  0.262E-01
  -3.764  0.771E-01  0.257E-01  0.257E-01  0.257E-01
  -3.754  0.852E-01  0.284E-01  0.284E-01  0.284E-01
  -3.744  0.997E-01  0.332E-01  0.332E-01  0.332E-01
  -3.734  0.116E+00  0.388E-01  0.388E-01  0.388E-01
  -3.724  0.131E+00  0.438E-01  0.438E-01  0.438E-01
  -3.714  0.142E+00  0.472E-01  0.472E-01  0.472E-01
  -3.704  0.146E+00  0.487E-01  0.487E-01  0.487E-01
  -3.694  0.145E+00  0.484E-01  0.484E-01  0.484E-01
  -3.684  0.141E+00  0.472E-01  0.472E-01  0.472E-01
  -3.674  0.138E+00  0.459E-01  0.459E-01  0.459E-01
  -3.664  0.136E+00  0.454E-01  0.454E-01  0.454E-01
  -3.654  0.138E+00  0.461E-01  0.461E-01  0.461E-01
  -3.644  0.144E+00  0.480E-01  0.480E-01  0.480E-01
  -3.634  0.152E+00  0.506E-01  0.506E-01  0.506E-01
  -3.624  0.159E+00  0.529E-01  0.529E-01  0.529E-01
  -3.614  0.162E+00  0.539E-01  0.539E-01  0.539E-01
  -3.604  0.159E+00  0.531E-01  0.531E-01  0.531E-01
  -3.594  0.151E+00  0.503E-01  0.503E-01  0.503E-01
  -3.584  0.137E+00  0.457E-01  0.457E-01  0.457E-01
  -3.574  0.120E+00  0.402E-01  0.402E-01  0.402E-01
  -3.564  0.104E+00  0.347E-01  0.347E-01  0.347E-01
  -3.554  0.910E-01  0.303E-01  0.303E-01  0.303E-01
  -3.544  0.825E-01  0.275E-01  0.275E-01  0.275E-01
  -3.534  0.789E-01  0.263E-01  0.263E-01  0.263E-01
  -3.524  0.792E-01  0.264E-01  0.264E-01  0.264E-01
  -3.514  0.811E-01  0.270E-01  0.270E-01  0.270E-01
  -3.504  0.825E-01  0.275E-01  0.275E-01  0.275E-01
  -3.494  0.816E-01  0.272E-01  0.272E-01  0.272E-01
  -3.484  0.776E-01  0.259E-01  0.259E-01  0.259E-01
  -3.474  0.711E-01  0.237E-01  0.237E-01  0.237E-01
  -3.464  0.636E-01  0.212E-01  0.212E-01  0.212E-01
  -3.454  0.574E-01  0.191E-01  0.191E-01  0.191E-01
  -3.444  0.549E-01  0.183E-01  0.183E-01  0.183E-01
  -3.434  0.583E-01  0.194E-01  0.194E-01  0.194E-01
  -3.424  0.686E-01  0.229E-01  0.229E-01  0.229E-01
  -3.414  0.855E-01  0.285E-01  0.285E-01  0.285E-01
  -3.404  0.108E+00  0.358E-01  0.358E-01  0.358E-01
  -3.394  0.132E+00  0.440E-01  0.440E-01  0.440E-01
  -3.384  0.155E+00  0.517E-01  0.517E-01  0.517E-01
  -3.374  0.174E+00  0.581E-01  0.581E-01  0.581E-01
  -3.364  0.187E+00  0.624E-01  0.624E-01  0.624E-01
  -3.354  0.193E+00  0.642E-01  0.642E-01  0.642E-01
  -3.344  0.192E+00  0.640E-01  0.640E-01  0.640E-01
  -3.334  0.188E+00  0.626E-01  0.626E-01  0.626E-01
  -3.324  0.184E+00  0.612E-01  0.612E-01  0.612E-01
  -3.314  0.182E+00  0.608E-01  0.608E-01  0.608E-01
  -3.304  0.186E+00  0.621E-01  0.621E-01  0.621E-01
  -3.294  0.195E+00  0.650E-01  0.650E-01  0.650E-01
  -3.284  0.207E+00  0.689E-01  0.689E-01  0.689E-01
  -3.274  0.217E+00  0.724E-01  0.724E-01  0.724E-01
  -3.264  0.223E+00  0.742E-01  0.742E-01  0.742E-01
  -3.254  0.219E+00  0.731E-01  0.731E-01  0.731E-01
  -3.244  0.206E+00  0.686E-01  0.686E-01  0.686E-01
  -3.234  0.182E+00  0.607E-01  0.607E-01  0.607E-01
  -3.224  0.152E+00  0.507E-01  0.507E-01  0.507E-01
  -3.214  0.120E+00  0.399E-01  0.399E-01  0.399E-01
  -3.204  0.900E-01  0.300E-01  0.300E-01  0.300E-01
  -3.194  0.674E-01  0.225E-01  0.225E-01  0.225E-01
  -3.184  0.544E-01  0.181E-01  0.181E-01  0.181E-01
  -3.174  0.514E-01  0.171E-01  0.171E-01  0.171E-01
  -3.164  0.572E-01  0.191E-01  0.191E-01  0.191E-01
  -3.154  0.688E-01  0.229E-01  0.229E-01  0.229E-01
  -3.144  0.835E-01  0.278E-01  0.278E-01  0.278E-01
  -3.134  0.984E-01  0.328E-01  0.328E-01  0.328E-01
  -3.124  0.112E+00  0.373E-01  0.373E-01  0.373E-01
  -3.114  0.123E+00  0.409E-01  0.409E-01  0.409E-01
  -3.104  0.131E+00  0.438E-01  0.438E-01  0.438E-01
  -3.094  0.137E+00  0.457E-01  0.457E-01  0.457E-01
  -3.084  0.140E+00  0.467E-01  0.467E-01  0.467E-01
  -3.074  0.140E+00  0.465E-01  0.465E-01  0.465E-01
  -3.064  0.135E+00  0.450E-01  0.450E-01  0.450E-01
  -3.054  0.126E+00  0.422E-01  0.422E-01  0.422E-01
  -3.044  0.115E+00  0.382E-01  0.382E-01  0.382E-01
  -3.034  0.101E+00  0.337E-01  0.337E-01  0.337E-01
  -3.024  0.888E-01  0.296E-01  0.296E-01  0.296E-01
  -3.014  0.804E-01  0.268E-01  0.268E-01  0.268E-01
  -3.004  0.778E-01  0.259E-01  0.259E-01  0.259E-01
  -2.994  0.821E-01  0.274E-01  0.274E-01  0.274E-01
  -2.984  0.925E-01  0.308E-01  0.308E-01  0.308E-01
  -2.974  0.107E+00  0.356E-01  0.356E-01  0.356E-01
  -2.964  0.122E+00  0.407E-01  0.407E-01  0.407E-01
  -2.954  0.135E+00  0.450E-01  0.450E-01  0.450E-01
  -2.944  0.142E+00  0.475E-01  0.475E-01  0.475E-01
  -2.934  0.143E+00  0.476E-01  0.476E-01  0.476E-01
  -2.924  0.136E+00  0.452E-01  0.452E-01  0.452E-01
  -2.914  0.121E+00  0.404E-01  0.404E-01  0.404E-01
  -2.904  0.102E+00  0.339E-01  0.339E-01  0.339E-01
  -2.894  0.796E-01  0.265E-01  0.265E-01  0.265E-01
  -2.884  0.576E-01  0.192E-01  0.192E-01  0.192E-01
  -2.874  0.389E-01  0.130E-01  0.130E-01  0.130E-01
  -2.864  0.263E-01  0.875E-02  0.875E-02  0.875E-02
  -2.854  0.217E-01  0.723E-02  0.723E-02  0.723E-02
  -2.844  0.264E-01  0.880E-02  0.880E-02  0.880E-02
  -2.834  0.407E-01  0.136E-01  0.136E-01  0.136E-01
  -2.824  0.635E-01  0.212E-01  0.212E-01  0.212E-01
  -2.814  0.932E-01  0.311E-01  0.311E-01  0.311E-01
  -2.804  0.127E+00  0.424E-01  0.424E-01  0.424E-01
  -2.794  0.163E+00  0.544E-01  0.544E-01  0.544E-01
  -2.784  0.198E+00  0.660E-01  0.660E-01  0.660E-01
  -2.774  0.229E+00  0.764E-01  0.764E-01  0.764E-01
  -2.764  0.254E+00  0.848E-01  0.848E-01  0.848E-01
  -2.754  0.272E+00  0.905E-01  0.905E-01  0.905E-01
  -2.744  0.279E+00  0.929E-01  0.929E-01  0.929E-01
  -2.734  0.275E+00  0.916E-01  0.916E-01  0.916E-01
  -2.724  0.259E+00  0.864E-01  0.864E-01  0.864E-01
  -2.714  0.233E+00  0.776E-01  0.776E-01  0.776E-01
  -2.704  0.198E+00  0.659E-01  0.659E-01  0.659E-01
  -2.694  0.157E+00  0.525E-01  0.525E-01  0.525E-01
  -2.684  0.116E+00  0.387E-01  0.387E-01  0.387E-01
  -2.674  0.774E-01  0.258E-01  0.258E-01  0.258E-01
  -2.664  0.444E-01  0.148E-01  0.148E-01  0.148E-01
  -2.654  0.191E-01  0.635E-02  0.635E-02  0.635E-02
  -2.644  0.154E-02  0.513E-03  0.513E-03  0.513E-03
  -2.634 -0.901E-02 -0.300E-02 -0.300E-02 -0.300E-02
  -2.624 -0.142E-01 -0.473E-02 -0.473E-02 -0.473E-02
  -2.614 -0.159E-01 -0.529E-02 -0.529E-02 -0.529E-02
  -2.604 -0.157E-01 -0.524E-02 -0.524E-02 -0.524E-02
  -2.594 -0.148E-01 -0.494E-02 -0.494E-02 -0.494E-02
  -2.584 -0.137E-01 -0.455E-02 -0.455E-02 -0.455E-02
  -2.574 -0.120E-01 -0.401E-02 -0.401E-02 -0.401E-02
  -2.564 -0.920E-02 -0.307E-02 -0.307E-02 -0.307E-02
  -2.554 -0.399E-02 -0.133E-02 -0.133E-02 -0.133E-02
  -2.544  0.485E-02  0.162E-02  0.162E-02  0.162E-02
  -2.534  0.183E-01  0.611E-02  0.611E-02  0.611E-02
  -2.524  0.368E-01  0.123E-01  0.123E-01  0.123E-01
  -2.514  0.598E-01  0.199E-01  0.199E-01  0.199E-01
  -2.504  0.857E-01  0.286E-01  0.286E-01  0.286E-01
  -2.494  0.112E+00  0.373E-01  0.373E-01  0.373E-01
  -2.484  0.135E+00  0.451E-01  0.451E-01  0.451E-01
  -2.474  0.153E+00  0.510E-01  0.510E-01  0.510E-01
  -2.464  0.162E+00  0.541E-01  0.541E-01  0.541E-01
  -2.454  0.163E+00  0.543E-01  0.543E-01  0.543E-01
  -2.444  0.156E+00  0.519E-01  0.519E-01  0.519E-01
  -2.434  0.143E+00  0.477E-01  0.477E-01  0.477E-01
  -2.424  0.129E+00  0.429E-01  0.429E-01  0.429E-01
  -2.414  0.116E+00  0.388E-01  0.388E-01  0.388E-01
  -2.404  0.109E+00  0.362E-01  0.362E-01  0.362E-01
  -2.394  0.106E+00  0.354E-01  0.354E-01  0.354E-01
  -2.384  0.109E+00  0.362E-01  0.362E-01  0.362E-01
  -2.374  0.113E+00  0.378E-01  0.378E-01  0.378E-01
  -2.364  0.117E+00  0.391E-01  0.391E-01  0.391E-01
  -2.354  0.118E+00  0.393E-01  0.393E-01  0.393E-01
  -2.344  0.115E+00  0.382E-01  0.382E-01  0.382E-01
  -2.334  0.108E+00  0.359E-01  0.359E-01  0.359E-01
  -2.324  0.996E-01  0.332E-01  0.332E-01  0.332E-01
  -2.314  0.936E-01  0.312E-01  0.312E-01  0.312E-01
  -2.304  0.923E-01  0.308E-01  0.308E-01  0.308E-01
  -2.294  0.972E-01  0.324E-01  0.324E-01  0.324E-01
  -2.284  0.108E+00  0.359E-01  0.359E-01  0.359E-01
  -2.274  0.122E+00  0.406E-01  0.406E-01  0.406E-01
  -2.264  0.136E+00  0.454E-01  0.454E-01  0.454E-01
  -2.254  0.147E+00  0.491E-01  0.491E-01  0.491E-01
  -2.244  0.152E+00  0.508E-01  0.508E-01  0.508E-01
  -2.234  0.150E+00  0.498E-01  0.498E-01  0.498E-01
  -2.224  0.139E+00  0.464E-01  0.464E-01  0.464E-01
  -2.214  0.122E+00  0.407E-01  0.407E-01  0.407E-01
  -2.204  0.101E+00  0.337E-01  0.337E-01  0.337E-01
  -2.194  0.781E-01  0.260E-01  0.260E-01  0.260E-01
  -2.184  0.559E-01  0.186E-01  0.186E-01  0.186E-01
  -2.174  0.361E-01  0.120E-01  0.120E-01  0.120E-01
  -2.164  0.201E-01  0.669E-02  0.669E-02  0.669E-02
  -2.154  0.802E-02  0.267E-02  0.267E-02  0.267E-02
  -2.144 -0.156E-03 -0.521E-04 -0.521E-04 -0.521E-04
  -2.134 -0.503E-02 -0.168E-02 -0.168E-02 -0.168E-02
  -2.124 -0.735E-02 -0.245E-02 -0.245E-02 -0.245E-02
  -2.114 -0.781E-02 -0.260E-02 -0.260E-02 -0.260E-02
  -2.104 -0.693E-02 -0.231E-02 -0.231E-02 -0.231E-02
  -2.094 -0.502E-02 -0.167E-02 -0.167E-02 -0.167E-02
  -2.084 -0.217E-02 -0.724E-03 -0.724E-03 -0.724E-03
  -2.074  0.164E-02  0.546E-03  0.546E-03  0.546E-03
  -2.064  0.639E-02  0.213E-02  0.213E-02  0.213E-02
  -2.054  0.119E-01  0.397E-02  0.397E-02  0.397E-02
  -2.044  0.178E-01  0.594E-02  0.594E-02  0.594E-02
  -2.034  0.234E-01  0.781E-02  0.781E-02  0.781E-02
  -2.024  0.280E-01  0.935E-02  0.935E-02  0.935E-02
  -2.014  0.309E-01  0.103E-01  0.103E-01  0.103E-01
  -2.004  0.315E-01  0.105E-01  0.105E-01  0.105E-01
  -1.994  0.296E-01  0.988E-02  0.988E-02  0.988E-02
  -1.984  0.256E-01  0.855E-02  0.855E-02  0.855E-02
  -1.974  0.201E-01  0.669E-02  0.669E-02  0.669E-02
  -1.964  0.138E-01  0.460E-02  0.460E-02  0.460E-02
  -1.954  0.776E-02  0.259E-02  0.259E-02  0.259E-02
  -1.944  0.285E-02  0.950E-03  0.950E-03  0.950E-03
  -1.934 -0.147E-03 -0.490E-04 -0.490E-04 -0.490E-04
  -1.924 -0.630E-03 -0.210E-03 -0.210E-03 -0.210E-03
  -1.914  0.181E-02  0.603E-03  0.603E-03  0.603E-03
  -1.904  0.735E-02  0.245E-02  0.245E-02  0.245E-02
  -1.894  0.159E-01  0.529E-02  0.529E-02  0.529E-02
  -1.884  0.269E-01  0.896E-02  0.896E-02  0.896E-02
  -1.874  0.395E-01  0.132E-01  0.132E-01  0.132E-01
  -1.864  0.525E-01  0.175E-01  0.175E-01  0.175E-01
  -1.854  0.646E-01  0.215E-01  0.215E-01  0.215E-01
  -1.844  0.744E-01  0.248E-01  0.248E-01  0.248E-01
  -1.834  0.813E-01  0.271E-01  0.271E-01  0.271E-01
  -1.824  0.851E-01  0.284E-01  0.284E-01  0.284E-01
  -1.814  0.864E-01  0.288E-01  0.288E-01  0.288E-01
  -1.804  0.862E-01  0.287E-01  0.287E-01  0.287E-01
  -1.794  0.857E-01  0.286E-01  0.286E-01  0.286E-01
  -1.784  0.859E-01  0.286E-01  0.286E-01  0.286E-01
  -1.774  0.869E-01  0.290E-01  0.290E-01  0.290E-01
  -1.764  0.884E-01  0.295E-01  0.295E-01  0.295E-01
  -1.754  0.894E-01  0.298E-01  0.298E-01  0.298E-01
  -1.744  0.886E-01  0.295E-01  0.295E-01  0.295E-01
  -1.734  0.850E-01  0.283E-01  0.283E-01  0.283E-01
  -1.724  0.783E-01  0.261E-01  0.261E-01  0.261E-01
  -1.714  0.686E-01  0.229E-01  0.229E-01  0.229E-01
  -1.704  0.570E-01  0.190E-01  0.190E-01  0.190E-01
  -1.694  0.449E-01  0.150E-01  0.150E-01  0.150E-01
  -1.684  0.339E-01  0.113E-01  0.113E-01  0.113E-01
  -1.674  0.254E-01  0.847E-02  0.847E-02  0.847E-02
  -1.664  0.202E-01  0.675E-02  0.675E-02  0.675E-02
  -1.654  0.187E-01  0.624E-02  0.624E-02  0.624E-02
  -1.644  0.204E-01  0.678E-02  0.678E-02  0.678E-02
  -1.634  0.242E-01  0.805E-02  0.805E-02  0.805E-02
  -1.624  0.287E-01  0.958E-02  0.958E-02  0.958E-02
  -1.614  0.327E-01  0.109E-01  0.109E-01  0.109E-01
  -1.604  0.349E-01  0.116E-01  0.116E-01  0.116E-01
  -1.594  0.346E-01  0.115E-01  0.115E-01  0.115E-01
  -1.584  0.319E-01  0.106E-01  0.106E-01  0.106E-01
  -1.574  0.271E-01  0.903E-02  0.903E-02  0.903E-02
  -1.564  0.211E-01  0.703E-02  0.703E-02  0.703E-02
  -1.554  0.148E-01  0.493E-02  0.493E-02  0.493E-02
  -1.544  0.905E-02  0.302E-02  0.302E-02  0.302E-02
  -1.534  0.440E-02  0.147E-02  0.147E-02  0.147E-02
  -1.524  0.107E-02  0.358E-03  0.358E-03  0.358E-03
  -1.514 -0.971E-03 -0.324E-03 -0.324E-03 -0.324E-03
  -1.504 -0.199E-02 -0.664E-03 -0.664E-03 -0.664E-03
  -1.494 -0.233E-02 -0.776E-03 -0.776E-03 -0.776E-03
  -1.484 -0.232E-02 -0.773E-03 -0.773E-03 -0.773E-03
  -1.474 -0.225E-02 -0.750E-03 -0.750E-03 -0.750E-03
  -1.464 -0.232E-02 -0.775E-03 -0.775E-03 -0.775E-03
  -1.454 -0.265E-02 -0.882E-03 -0.882E-03 -0.882E-03
  -1.444 -0.322E-02 -0.107E-02 -0.107E-02 -0.107E-02
  -1.434 -0.392E-02 -0.131E-02 -0.131E-02 -0.131E-02
  -1.424 -0.447E-02 -0.149E-02 -0.149E-02 -0.149E-02
  -1.414 -0.446E-02 -0.149E-02 -0.149E-02 -0.149E-02
  -1.404 -0.332E-02 -0.111E-02 -0.111E-02 -0.111E-02
  -1.394 -0.466E-03 -0.155E-03 -0.155E-03 -0.155E-03
  -1.384  0.455E-02  0.152E-02  0.152E-02  0.152E-02
  -1.374  0.118E-01  0.395E-02  0.395E-02  0.395E-02
  -1.364  0.210E-01  0.700E-02  0.700E-02  0.700E-02
  -1.354  0.311E-01  0.104E-01  0.104E-01  0.104E-01
  -1.344  0.409E-01  0.136E-01  0.136E-01  0.136E-01
  -1.334  0.489E-01  0.163E-01  0.163E-01  0.163E-01
  -1.324  0.547E-01  0.182E-01  0.182E-01  0.182E-01
  -1.314  0.588E-01  0.196E-01  0.196E-01  0.196E-01
  -1.304  0.634E-01  0.211E-01  0.211E-01  0.211E-01
  -1.294  0.718E-01  0.239E-01  0.239E-01  0.239E-01
  -1.284  0.881E-01  0.294E-01  0.294E-01  0.294E-01
  -1.274  0.115E+00  0.385E-01  0.385E-01  0.385E-01
  -1.264  0.155E+00  0.516E-01  0.516E-01  0.516E-01
  -1.254  0.204E+00  0.680E-01  0.680E-01  0.680E-01
  -1.244  0.257E+00  0.858E-01  0.858E-01  0.858E-01
  -1.234  0.307E+00  0.102E+00  0.102E+00  0.102E+00
  -1.224  0.344E+00  0.115E+00  0.115E+00  0.115E+00
  -1.214  0.361E+00  0.120E+00  0.120E+00  0.120E+00
  -1.204  0.356E+00  0.119E+00  0.119E+00  0.119E+00
  -1.194  0.329E+00  0.110E+00  0.110E+00  0.110E+00
  -1.184  0.286E+00  0.954E-01  0.954E-01  0.954E-01
  -1.174  0.235E+00  0.784E-01  0.784E-01  0.784E-01
  -1.164  0.184E+00  0.614E-01  0.614E-01  0.614E-01
  -1.154  0.140E+00  0.468E-01  0.468E-01  0.468E-01
  -1.144  0.107E+00  0.356E-01  0.356E-01  0.356E-01
  -1.134  0.842E-01  0.281E-01  0.281E-01  0.281E-01
  -1.124  0.700E-01  0.233E-01  0.233E-01  0.233E-01
  -1.114  0.609E-01  0.203E-01  0.203E-01  0.203E-01
  -1.104  0.535E-01  0.178E-01  0.178E-01  0.178E-01
  -1.094  0.460E-01  0.153E-01  0.153E-01  0.153E-01
  -1.084  0.378E-01  0.126E-01  0.126E-01  0.126E-01
  -1.074  0.300E-01  0.100E-01  0.100E-01  0.100E-01
  -1.064  0.244E-01  0.812E-02  0.812E-02  0.812E-02
  -1.054  0.225E-01  0.749E-02  0.749E-02  0.749E-02
  -1.044  0.251E-01  0.838E-02  0.838E-02  0.838E-02
  -1.034  0.321E-01  0.107E-01  0.107E-01  0.107E-01
  -1.024  0.418E-01  0.139E-01  0.139E-01  0.139E-01
  -1.014  0.519E-01  0.173E-01  0.173E-01  0.173E-01
  -1.004  0.600E-01  0.200E-01  0.200E-01  0.200E-01
  -0.994  0.645E-01  0.215E-01  0.215E-01  0.215E-01
  -0.984  0.654E-01  0.218E-01  0.218E-01  0.218E-01
  -0.974  0.644E-01  0.215E-01  0.215E-01  0.215E-01
  -0.964  0.654E-01  0.218E-01  0.218E-01  0.218E-01
  -0.954  0.736E-01  0.245E-01  0.245E-01  0.245E-01
  -0.944  0.944E-01  0.315E-01  0.315E-01  0.315E-01
  -0.934  0.132E+00  0.440E-01  0.440E-01  0.440E-01
  -0.924  0.188E+00  0.626E-01  0.626E-01  0.626E-01
  -0.914  0.260E+00  0.866E-01  0.866E-01  0.866E-01
  -0.904  0.342E+00  0.114E+00  0.114E+00  0.114E+00
  -0.894  0.426E+00  0.142E+00  0.142E+00  0.142E+00
  -0.884  0.501E+00  0.167E+00  0.167E+00  0.167E+00
  -0.874  0.562E+00  0.187E+00  0.187E+00  0.187E+00
  -0.864  0.601E+00  0.200E+00  0.200E+00  0.200E+00
  -0.854  0.619E+00  0.206E+00  0.206E+00  0.206E+00
  -0.844  0.618E+00  0.206E+00  0.206E+00  0.206E+00
  -0.834  0.606E+00  0.202E+00  0.202E+00  0.202E+00
  -0.824  0.587E+00  0.196E+00  0.196E+00  0.196E+00
  -0.814  0.567E+00  0.189E+00  0.189E+00  0.189E+00
  -0.804  0.548E+00  0.183E+00  0.183E+00  0.183E+00
  -0.794  0.529E+00  0.176E+00  0.176E+00  0.176E+00
  -0.784  0.508E+00  0.169E+00  0.169E+00  0.169E+00
  -0.774  0.482E+00  0.161E+00  0.161E+00  0.161E+00
  -0.764  0.450E+00  0.150E+00  0.150E+00  0.150E+00
  -0.754  0.411E+00  0.137E+00  0.137E+00  0.137E+00
  -0.744  0.369E+00  0.123E+00  0.123E+00  0.123E+00
  -0.734  0.326E+00  0.109E+00  0.109E+00  0.109E+00
  -0.724  0.286E+00  0.954E-01  0.954E-01  0.954E-01
  -0.714  0.252E+00  0.840E-01  0.840E-01  0.840E-01
  -0.704  0.226E+00  0.753E-01  0.753E-01  0.753E-01
  -0.694  0.210E+00  0.699E-01  0.699E-01  0.699E-01
  -0.684  0.204E+00  0.680E-01  0.680E-01  0.680E-01
  -0.674  0.208E+00  0.695E-01  0.695E-01  0.695E-01
  -0.664  0.223E+00  0.743E-01  0.743E-01  0.743E-01
  -0.654  0.245E+00  0.818E-01  0.818E-01  0.818E-01
  -0.644  0.274E+00  0.913E-01  0.913E-01  0.913E-01
  -0.634  0.304E+00  0.101E+00  0.101E+00  0.101E+00
  -0.624  0.333E+00  0.111E+00  0.111E+00  0.111E+00
  -0.614  0.353E+00  0.118E+00  0.118E+00  0.118E+00
  -0.604  0.363E+00  0.121E+00  0.121E+00  0.121E+00
  -0.594  0.358E+00  0.119E+00  0.119E+00  0.119E+00
  -0.584  0.340E+00  0.113E+00  0.113E+00  0.113E+00
  -0.574  0.309E+00  0.103E+00  0.103E+00  0.103E+00
  -0.564  0.272E+00  0.906E-01  0.906E-01  0.906E-01
  -0.554  0.235E+00  0.783E-01  0.783E-01  0.783E-01
  -0.544  0.204E+00  0.681E-01  0.681E-01  0.681E-01
  -0.534  0.185E+00  0.618E-01  0.618E-01  0.618E-01
  -0.524  0.180E+00  0.600E-01  0.600E-01  0.600E-01
  -0.514  0.186E+00  0.621E-01  0.621E-01  0.621E-01
  -0.504  0.201E+00  0.671E-01  0.671E-01  0.671E-01
  -0.494  0.219E+00  0.731E-01  0.731E-01  0.731E-01
  -0.484  0.236E+00  0.786E-01  0.786E-01  0.786E-01
  -0.474  0.249E+00  0.828E-01  0.828E-01  0.828E-01
  -0.464  0.257E+00  0.856E-01  0.856E-01  0.856E-01
  -0.454  0.263E+00  0.876E-01  0.876E-01  0.876E-01
  -0.444  0.269E+00  0.897E-01  0.897E-01  0.897E-01
  -0.434  0.278E+00  0.928E-01  0.928E-01  0.928E-01
  -0.424  0.291E+00  0.969E-01  0.969E-01  0.969E-01
  -0.414  0.305E+00  0.102E+00  0.102E+00  0.102E+00
  -0.404  0.316E+00  0.105E+00  0.105E+00  0.105E+00
  -0.394  0.322E+00  0.107E+00  0.107E+00  0.107E+00
  -0.384  0.317E+00  0.106E+00  0.106E+00  0.106E+00
  -0.374  0.301E+00  0.100E+00  0.100E+00  0.100E+00
  -0.364  0.275E+00  0.917E-01  0.917E-01  0.917E-01
  -0.354  0.241E+00  0.805E-01  0.805E-01  0.805E-01
  -0.344  0.205E+00  0.684E-01  0.684E-01  0.684E-01
  -0.334  0.171E+00  0.569E-01  0.569E-01  0.569E-01
  -0.324  0.141E+00  0.469E-01  0.469E-01  0.469E-01
  -0.314  0.117E+00  0.389E-01  0.389E-01  0.389E-01
  -0.304  0.981E-01  0.327E-01  0.327E-01  0.327E-01
  -0.294  0.827E-01  0.276E-01  0.276E-01  0.276E-01
  -0.284  0.686E-01  0.229E-01  0.229E-01  0.229E-01
  -0.274  0.541E-01  0.180E-01  0.180E-01  0.180E-01
  -0.264  0.385E-01  0.128E-01  0.128E-01  0.128E-01
  -0.254  0.221E-01  0.736E-02  0.736E-02  0.736E-02
  -0.244  0.600E-02  0.200E-02  0.200E-02  0.200E-02
  -0.234 -0.809E-02 -0.270E-02 -0.270E-02 -0.270E-02
  -0.224 -0.181E-01 -0.604E-02 -0.604E-02 -0.604E-02
  -0.214 -0.217E-01 -0.725E-02 -0.725E-02 -0.725E-02
  -0.204 -0.163E-01 -0.545E-02 -0.545E-02 -0.545E-02
  -0.194  0.656E-03  0.219E-03  0.219E-03  0.219E-03
  -0.184  0.314E-01  0.105E-01  0.105E-01  0.105E-01
  -0.174  0.768E-01  0.256E-01  0.256E-01  0.256E-01
  -0.164  0.136E+00  0.453E-01  0.453E-01  0.453E-01
  -0.154  0.206E+00  0.686E-01  0.686E-01  0.686E-01
  -0.144  0.281E+00  0.936E-01  0.936E-01  0.936E-01
  -0.134  0.353E+00  0.118E+00  0.118E+00  0.118E+00
  -0.124  0.415E+00  0.138E+00  0.138E+00  0.138E+00
  -0.114  0.459E+00  0.153E+00  0.153E+00  0.153E+00
  -0.104  0.481E+00  0.160E+00  0.160E+00  0.160E+00
  -0.094  0.477E+00  0.159E+00  0.159E+00  0.159E+00
  -0.084  0.450E+00  0.150E+00  0.150E+00  0.150E+00
  -0.074  0.403E+00  0.134E+00  0.134E+00  0.134E+00
  -0.064  0.342E+00  0.114E+00  0.114E+00  0.114E+00
  -0.054  0.275E+00  0.918E-01  0.918E-01  0.918E-01
  -0.044  0.208E+00  0.693E-01  0.693E-01  0.693E-01
  -0.034  0.146E+00  0.486E-01  0.486E-01  0.486E-01
  -0.024  0.923E-01  0.308E-01  0.308E-01  0.308E-01
  -0.014  0.498E-01  0.166E-01  0.166E-01  0.166E-01
  -0.004  0.190E-01  0.633E-02  0.633E-02  0.633E-02
   0.006 -0.537E-03 -0.179E-03 -0.179E-03 -0.179E-03
   0.016 -0.979E-02 -0.326E-02 -0.326E-02 -0.326E-02
   0.026 -0.102E-01 -0.339E-02 -0.339E-02 -0.339E-02
   0.036 -0.333E-02 -0.111E-02 -0.111E-02 -0.111E-02
   0.046  0.889E-02  0.296E-02  0.296E-02  0.296E-02
   0.056  0.244E-01  0.813E-02  0.813E-02  0.813E-02
   0.066  0.408E-01  0.136E-01  0.136E-01  0.136E-01
   0.076  0.556E-01  0.185E-01  0.185E-01  0.185E-01
   0.086  0.664E-01  0.221E-01  0.221E-01  0.221E-01
   0.096  0.711E-01  0.237E-01  0.237E-01  0.237E-01
   0.106  0.687E-01  0.229E-01  0.229E-01  0.229E-01
   0.116  0.594E-01  0.198E-01  0.198E-01  0.198E-01
   0.126  0.447E-01  0.149E-01  0.149E-01  0.149E-01
   0.136  0.276E-01  0.918E-02  0.918E-02  0.918E-02
   0.146  0.122E-01  0.408E-02  0.408E-02  0.408E-02
   0.156  0.373E-02  0.124E-02  0.124E-02  0.124E-02
   0.166  0.726E-02  0.242E-02  0.242E-02  0.242E-02
   0.176  0.273E-01  0.912E-02  0.912E-02  0.912E-02
   0.186  0.668E-01  0.223E-01  0.223E-01  0.223E-01
   0.196  0.126E+00  0.419E-01  0.419E-01  0.419E-01
   0.206  0.201E+00  0.669E-01  0.669E-01  0.669E-01
   0.216  0.284E+00  0.947E-01  0.947E-01  0.947E-01
   0.226  0.366E+00  0.122E+00  0.122E+00  0.122E+00
   0.236  0.434E+00  0.145E+00  0.145E+00  0.145E+00
   0.246  0.478E+00  0.159E+00  0.159E+00  0.159E+00
   0.256  0.491E+00  0.164E+00  0.164E+00  0.164E+00
   0.266  0.470E+00  0.157E+00  0.157E+00  0.157E+00
   0.276  0.419E+00  0.140E+00  0.140E+00  0.140E+00
   0.286  0.346E+00  0.115E+00  0.115E+00  0.115E+00
   0.296  0.262E+00  0.874E-01  0.874E-01  0.874E-01
   0.306  0.179E+00  0.595E-01  0.595E-01  0.595E-01
   0.316  0.105E+00  0.349E-01  0.349E-01  0.349E-01
   0.326  0.462E-01  0.154E-01  0.154E-01  0.154E-01
   0.336  0.608E-02  0.203E-02  0.203E-02  0.203E-02
   0.346 -0.160E-01 -0.533E-02 -0.533E-02 -0.533E-02
   0.356 -0.221E-01 -0.738E-02 -0.738E-02 -0.738E-02
   0.366 -0.153E-01 -0.510E-02 -0.510E-02 -0.510E-02
   0.376  0.139E-02  0.464E-03  0.464E-03  0.464E-03
   0.386  0.248E-01  0.828E-02  0.828E-02  0.828E-02
   0.396  0.520E-01  0.173E-01  0.173E-01  0.173E-01
   0.406  0.795E-01  0.265E-01  0.265E-01  0.265E-01
   0.416  0.104E+00  0.347E-01  0.347E-01  0.347E-01
   0.426  0.123E+00  0.409E-01  0.409E-01  0.409E-01
   0.436  0.133E+00  0.442E-01  0.442E-01  0.442E-01
   0.446  0.133E+00  0.443E-01  0.443E-01  0.443E-01
   0.456  0.124E+00  0.413E-01  0.413E-01  0.413E-01
   0.466  0.107E+00  0.356E-01  0.356E-01  0.356E-01
   0.476  0.845E-01  0.282E-01  0.282E-01  0.282E-01
   0.486  0.604E-01  0.201E-01  0.201E-01  0.201E-01
   0.496  0.372E-01  0.124E-01  0.124E-01  0.124E-01
   0.506  0.173E-01  0.578E-02  0.578E-02  0.578E-02
   0.516  0.193E-02  0.643E-03  0.643E-03  0.643E-03
   0.526 -0.856E-02 -0.285E-02 -0.285E-02 -0.285E-02
   0.536 -0.142E-01 -0.473E-02 -0.473E-02 -0.473E-02
   0.546 -0.152E-01 -0.507E-02 -0.507E-02 -0.507E-02
   0.556 -0.115E-01 -0.384E-02 -0.384E-02 -0.384E-02
   0.566 -0.272E-02 -0.907E-03 -0.907E-03 -0.907E-03
   0.576  0.120E-01  0.400E-02  0.400E-02  0.400E-02
   0.586  0.335E-01  0.112E-01  0.112E-01  0.112E-01
   0.596  0.624E-01  0.208E-01  0.208E-01  0.208E-01
   0.606  0.982E-01  0.327E-01  0.327E-01  0.327E-01
   0.616  0.139E+00  0.465E-01  0.465E-01  0.465E-01
   0.626  0.183E+00  0.610E-01  0.610E-01  0.610E-01
   0.636  0.224E+00  0.748E-01  0.748E-01  0.748E-01
   0.646  0.259E+00  0.863E-01  0.863E-01  0.863E-01
   0.656  0.282E+00  0.940E-01  0.940E-01  0.940E-01
   0.666  0.290E+00  0.967E-01  0.967E-01  0.967E-01
   0.676  0.282E+00  0.941E-01  0.941E-01  0.941E-01
   0.686  0.259E+00  0.864E-01  0.864E-01  0.864E-01
   0.696  0.224E+00  0.748E-01  0.748E-01  0.748E-01
   0.706  0.182E+00  0.607E-01  0.607E-01  0.607E-01
   0.716  0.137E+00  0.458E-01  0.458E-01  0.458E-01
   0.726  0.950E-01  0.317E-01  0.317E-01  0.317E-01
   0.736  0.582E-01  0.194E-01  0.194E-01  0.194E-01
   0.746  0.291E-01  0.969E-02  0.969E-02  0.969E-02
   0.756  0.801E-02  0.267E-02  0.267E-02  0.267E-02
   0.766 -0.566E-02 -0.189E-02 -0.189E-02 -0.189E-02
   0.776 -0.133E-01 -0.443E-02 -0.443E-02 -0.443E-02
   0.786 -0.164E-01 -0.547E-02 -0.547E-02 -0.547E-02
   0.796 -0.164E-01 -0.548E-02 -0.548E-02 -0.548E-02
   0.806 -0.142E-01 -0.473E-02 -0.473E-02 -0.473E-02
   0.816 -0.996E-02 -0.332E-02 -0.332E-02 -0.332E-02
   0.826 -0.337E-02 -0.112E-02 -0.112E-02 -0.112E-02
   0.836  0.644E-02  0.215E-02  0.215E-02  0.215E-02
   0.846  0.206E-01  0.685E-02  0.685E-02  0.685E-02
   0.856  0.398E-01  0.133E-01  0.133E-01  0.133E-01
   0.866  0.644E-01  0.215E-01  0.215E-01  0.215E-01
   0.876  0.933E-01  0.311E-01  0.311E-01  0.311E-01
   0.886  0.124E+00  0.414E-01  0.414E-01  0.414E-01
   0.896  0.153E+00  0.511E-01  0.511E-01  0.511E-01
   0.906  0.176E+00  0.588E-01  0.588E-01  0.588E-01
   0.916  0.190E+00  0.632E-01  0.632E-01  0.632E-01
   0.926  0.190E+00  0.634E-01  0.634E-01  0.634E-01
   0.936  0.178E+00  0.592E-01  0.592E-01  0.592E-01
   0.946  0.154E+00  0.514E-01  0.514E-01  0.514E-01
   0.956  0.125E+00  0.416E-01  0.416E-01  0.416E-01
   0.966  0.951E-01  0.317E-01  0.317E-01  0.317E-01
   0.976  0.717E-01  0.239E-01  0.239E-01  0.239E-01
   0.986  0.596E-01  0.199E-01  0.199E-01  0.199E-01
   0.996  0.619E-01  0.206E-01  0.206E-01  0.206E-01
   1.006  0.784E-01  0.261E-01  0.261E-01  0.261E-01
   1.016  0.106E+00  0.354E-01  0.354E-01  0.354E-01
   1.026  0.140E+00  0.466E-01  0.466E-01  0.466E-01
   1.036  0.172E+00  0.575E-01  0.575E-01  0.575E-01
   1.046  0.197E+00  0.658E-01  0.658E-01  0.658E-01
   1.056  0.210E+00  0.698E-01  0.698E-01  0.698E-01
   1.066  0.206E+00  0.688E-01  0.688E-01  0.688E-01
   1.076  0.188E+00  0.627E-01  0.627E-01  0.627E-01
   1.086  0.159E+00  0.528E-01  0.528E-01  0.528E-01
   1.096  0.123E+00  0.408E-01  0.408E-01  0.408E-01
   1.106  0.863E-01  0.288E-01  0.288E-01  0.288E-01
   1.116  0.552E-01  0.184E-01  0.184E-01  0.184E-01
   1.126  0.334E-01  0.111E-01  0.111E-01  0.111E-01
   1.136  0.228E-01  0.762E-02  0.762E-02  0.762E-02
   1.146  0.234E-01  0.781E-02  0.781E-02  0.781E-02
   1.156  0.332E-01  0.111E-01  0.111E-01  0.111E-01
   1.166  0.488E-01  0.163E-01  0.163E-01  0.163E-01
   1.176  0.663E-01  0.221E-01  0.221E-01  0.221E-01
   1.186  0.819E-01  0.273E-01  0.273E-01  0.273E-01
   1.196  0.923E-01  0.308E-01  0.308E-01  0.308E-01
   1.206  0.956E-01  0.319E-01  0.319E-01  0.319E-01
   1.216  0.913E-01  0.304E-01  0.304E-01  0.304E-01
   1.226  0.806E-01  0.269E-01  0.269E-01  0.269E-01
   1.236  0.653E-01  0.218E-01  0.218E-01  0.218E-01
   1.246  0.482E-01  0.161E-01  0.161E-01  0.161E-01
   1.256  0.315E-01  0.105E-01  0.105E-01  0.105E-01
   1.266  0.172E-01  0.572E-02  0.572E-02  0.572E-02
   1.276  0.603E-02  0.201E-02  0.201E-02  0.201E-02
   1.286 -0.177E-02 -0.590E-03 -0.590E-03 -0.590E-03
   1.296 -0.676E-02 -0.225E-02 -0.225E-02 -0.225E-02
   1.306 -0.976E-02 -0.325E-02 -0.325E-02 -0.325E-02
   1.316 -0.116E-01 -0.386E-02 -0.386E-02 -0.386E-02
   1.326 -0.127E-01 -0.424E-02 -0.424E-02 -0.424E-02
   1.336 -0.132E-01 -0.439E-02 -0.439E-02 -0.439E-02
   1.346 -0.123E-01 -0.411E-02 -0.411E-02 -0.411E-02
   1.356 -0.912E-02 -0.304E-02 -0.304E-02 -0.304E-02
   1.366 -0.216E-02 -0.720E-03 -0.720E-03 -0.720E-03
   1.376  0.994E-02  0.331E-02  0.331E-02  0.331E-02
   1.386  0.281E-01  0.937E-02  0.937E-02  0.937E-02
   1.396  0.525E-01  0.175E-01  0.175E-01  0.175E-01
   1.406  0.819E-01  0.273E-01  0.273E-01  0.273E-01
   1.416  0.114E+00  0.381E-01  0.381E-01  0.381E-01
   1.426  0.147E+00  0.489E-01  0.489E-01  0.489E-01
   1.436  0.176E+00  0.586E-01  0.586E-01  0.586E-01
   1.446  0.198E+00  0.662E-01  0.662E-01  0.662E-01
   1.456  0.213E+00  0.710E-01  0.710E-01  0.710E-01
   1.466  0.219E+00  0.729E-01  0.729E-01  0.729E-01
   1.476  0.216E+00  0.719E-01  0.719E-01  0.719E-01
   1.486  0.206E+00  0.686E-01  0.686E-01  0.686E-01
   1.496  0.191E+00  0.636E-01  0.636E-01  0.636E-01
   1.506  0.172E+00  0.575E-01  0.575E-01  0.575E-01
   1.516  0.153E+00  0.509E-01  0.509E-01  0.509E-01
   1.526  0.134E+00  0.446E-01  0.446E-01  0.446E-01
   1.536  0.117E+00  0.391E-01  0.391E-01  0.391E-01
   1.546  0.104E+00  0.346E-01  0.346E-01  0.346E-01
   1.556  0.943E-01  0.314E-01  0.314E-01  0.314E-01
   1.566  0.884E-01  0.295E-01  0.295E-01  0.295E-01
   1.576  0.849E-01  0.283E-01  0.283E-01  0.283E-01
   1.586  0.817E-01  0.272E-01  0.272E-01  0.272E-01
   1.596  0.768E-01  0.256E-01  0.256E-01  0.256E-01
   1.606  0.684E-01  0.228E-01  0.228E-01  0.228E-01
   1.616  0.554E-01  0.185E-01  0.185E-01  0.185E-01
   1.626  0.381E-01  0.127E-01  0.127E-01  0.127E-01
   1.636  0.180E-01  0.599E-02  0.599E-02  0.599E-02
   1.646 -0.214E-02 -0.713E-03 -0.713E-03 -0.713E-03
   1.656 -0.183E-01 -0.609E-02 -0.609E-02 -0.609E-02
   1.666 -0.255E-01 -0.851E-02 -0.851E-02 -0.851E-02
   1.676 -0.184E-01 -0.614E-02 -0.614E-02 -0.614E-02
   1.686  0.840E-02  0.280E-02  0.280E-02  0.280E-02
   1.696  0.591E-01  0.197E-01  0.197E-01  0.197E-01
   1.706  0.135E+00  0.451E-01  0.451E-01  0.451E-01
   1.716  0.235E+00  0.783E-01  0.783E-01  0.783E-01
   1.726  0.351E+00  0.117E+00  0.117E+00  0.117E+00
   1.736  0.474E+00  0.158E+00  0.158E+00  0.158E+00
   1.746  0.589E+00  0.196E+00  0.196E+00  0.196E+00
   1.756  0.682E+00  0.227E+00  0.227E+00  0.227E+00
   1.766  0.741E+00  0.247E+00  0.247E+00  0.247E+00
   1.776  0.760E+00  0.253E+00  0.253E+00  0.253E+00
   1.786  0.738E+00  0.246E+00  0.246E+00  0.246E+00
   1.796  0.680E+00  0.227E+00  0.227E+00  0.227E+00
   1.806  0.598E+00  0.199E+00  0.199E+00  0.199E+00
   1.816  0.505E+00  0.168E+00  0.168E+00  0.168E+00
   1.826  0.417E+00  0.139E+00  0.139E+00  0.139E+00
   1.836  0.346E+00  0.115E+00  0.115E+00  0.115E+00
   1.846  0.303E+00  0.101E+00  0.101E+00  0.101E+00
   1.856  0.294E+00  0.980E-01  0.980E-01  0.980E-01
   1.866  0.320E+00  0.107E+00  0.107E+00  0.107E+00
   1.876  0.378E+00  0.126E+00  0.126E+00  0.126E+00
   1.886  0.458E+00  0.153E+00  0.153E+00  0.153E+00
   1.896  0.549E+00  0.183E+00  0.183E+00  0.183E+00
   1.906  0.636E+00  0.212E+00  0.212E+00  0.212E+00
   1.916  0.707E+00  0.236E+00  0.236E+00  0.236E+00
   1.926  0.751E+00  0.250E+00  0.250E+00  0.250E+00
   1.936  0.764E+00  0.255E+00  0.255E+00  0.255E+00
   1.946  0.747E+00  0.249E+00  0.249E+00  0.249E+00
   1.956  0.706E+00  0.235E+00  0.235E+00  0.235E+00
   1.966  0.652E+00  0.217E+00  0.217E+00  0.217E+00
   1.976  0.597E+00  0.199E+00  0.199E+00  0.199E+00
   1.986  0.555E+00  0.185E+00  0.185E+00  0.185E+00
   1.996  0.534E+00  0.178E+00  0.178E+00  0.178E+00
   2.006  0.538E+00  0.179E+00  0.179E+00  0.179E+00
   2.016  0.566E+00  0.189E+00  0.189E+00  0.189E+00
   2.026  0.609E+00  0.203E+00  0.203E+00  0.203E+00
   2.036  0.656E+00  0.219E+00  0.219E+00  0.219E+00
   2.046  0.692E+00  0.231E+00  0.231E+00  0.231E+00
   2.056  0.706E+00  0.235E+00  0.235E+00  0.235E+00
   2.066  0.692E+00  0.231E+00  0.231E+00  0.231E+00
   2.076  0.649E+00  0.216E+00  0.216E+00  0.216E+00
   2.086  0.582E+00  0.194E+00  0.194E+00  0.194E+00
   2.096  0.503E+00  0.168E+00  0.168E+00  0.168E+00
   2.106  0.420E+00  0.140E+00  0.140E+00  0.140E+00
   2.116  0.347E+00  0.116E+00  0.116E+00  0.116E+00
   2.126  0.289E+00  0.965E-01  0.965E-01  0.965E-01
   2.136  0.253E+00  0.843E-01  0.843E-01  0.843E-01
   2.146  0.239E+00  0.798E-01  0.798E-01  0.798E-01
   2.156  0.249E+00  0.830E-01  0.830E-01  0.830E-01
   2.166  0.280E+00  0.933E-01  0.933E-01  0.933E-01
   2.176  0.328E+00  0.109E+00  0.109E+00  0.109E+00
   2.186  0.388E+00  0.129E+00  0.129E+00  0.129E+00
   2.196  0.451E+00  0.150E+00  0.150E+00  0.150E+00
   2.206  0.505E+00  0.168E+00  0.168E+00  0.168E+00
   2.216  0.540E+00  0.180E+00  0.180E+00  0.180E+00
   2.226  0.546E+00  0.182E+00  0.182E+00  0.182E+00
   2.236  0.521E+00  0.174E+00  0.174E+00  0.174E+00
   2.246  0.468E+00  0.156E+00  0.156E+00  0.156E+00
   2.256  0.398E+00  0.133E+00  0.133E+00  0.133E+00
   2.266  0.324E+00  0.108E+00  0.108E+00  0.108E+00
   2.276  0.264E+00  0.882E-01  0.882E-01  0.882E-01
   2.286  0.232E+00  0.773E-01  0.773E-01  0.773E-01
   2.296  0.234E+00  0.780E-01  0.780E-01  0.780E-01
   2.306  0.272E+00  0.905E-01  0.905E-01  0.905E-01
   2.316  0.338E+00  0.113E+00  0.113E+00  0.113E+00
   2.326  0.420E+00  0.140E+00  0.140E+00  0.140E+00
   2.336  0.505E+00  0.168E+00  0.168E+00  0.168E+00
   2.346  0.580E+00  0.193E+00  0.193E+00  0.193E+00
   2.356  0.637E+00  0.212E+00  0.212E+00  0.212E+00
   2.366  0.674E+00  0.225E+00  0.225E+00  0.225E+00
   2.376  0.693E+00  0.231E+00  0.231E+00  0.231E+00
   2.386  0.704E+00  0.235E+00  0.235E+00  0.235E+00
   2.396  0.714E+00  0.238E+00  0.238E+00  0.238E+00
   2.406  0.728E+00  0.243E+00  0.243E+00  0.243E+00
   2.416  0.751E+00  0.250E+00  0.250E+00  0.250E+00
   2.426  0.778E+00  0.259E+00  0.259E+00  0.259E+00
   2.436  0.804E+00  0.268E+00  0.268E+00  0.268E+00
   2.446  0.820E+00  0.273E+00  0.273E+00  0.273E+00
   2.456  0.820E+00  0.273E+00  0.273E+00  0.273E+00
   2.466  0.799E+00  0.266E+00  0.266E+00  0.266E+00
   2.476  0.759E+00  0.253E+00  0.253E+00  0.253E+00
   2.486  0.703E+00  0.234E+00  0.234E+00  0.234E+00
   2.496  0.639E+00  0.213E+00  0.213E+00  0.213E+00
   2.506  0.573E+00  0.191E+00  0.191E+00  0.191E+00
   2.516  0.507E+00  0.169E+00  0.169E+00  0.169E+00
   2.526  0.445E+00  0.148E+00  0.148E+00  0.148E+00
   2.536  0.385E+00  0.128E+00  0.128E+00  0.128E+00
   2.546  0.325E+00  0.108E+00  0.108E+00  0.108E+00
   2.556  0.264E+00  0.879E-01  0.879E-01  0.879E-01
   2.566  0.203E+00  0.678E-01  0.678E-01  0.678E-01
   2.576  0.148E+00  0.495E-01  0.495E-01  0.495E-01
   2.586  0.105E+00  0.349E-01  0.349E-01  0.349E-01
   2.596  0.785E-01  0.262E-01  0.262E-01  0.262E-01
   2.606  0.749E-01  0.250E-01  0.250E-01  0.250E-01
   2.616  0.959E-01  0.320E-01  0.320E-01  0.320E-01
   2.626  0.140E+00  0.465E-01  0.465E-01  0.465E-01
   2.636  0.201E+00  0.670E-01  0.670E-01  0.670E-01
   2.646  0.273E+00  0.909E-01  0.909E-01  0.909E-01
   2.656  0.347E+00  0.116E+00  0.116E+00  0.116E+00
   2.666  0.415E+00  0.138E+00  0.138E+00  0.138E+00
   2.676  0.472E+00  0.157E+00  0.157E+00  0.157E+00
   2.686  0.512E+00  0.171E+00  0.171E+00  0.171E+00
   2.696  0.536E+00  0.179E+00  0.179E+00  0.179E+00
   2.706  0.544E+00  0.181E+00  0.181E+00  0.181E+00
   2.716  0.539E+00  0.180E+00  0.180E+00  0.180E+00
   2.726  0.527E+00  0.176E+00  0.176E+00  0.176E+00
   2.736  0.513E+00  0.171E+00  0.171E+00  0.171E+00
   2.746  0.503E+00  0.168E+00  0.168E+00  0.168E+00
   2.756  0.503E+00  0.168E+00  0.168E+00  0.168E+00
   2.766  0.515E+00  0.172E+00  0.172E+00  0.172E+00
   2.776  0.539E+00  0.180E+00  0.180E+00  0.180E+00
   2.786  0.570E+00  0.190E+00  0.190E+00  0.190E+00
   2.796  0.604E+00  0.201E+00  0.201E+00  0.201E+00
   2.806  0.634E+00  0.211E+00  0.211E+00  0.211E+00
   2.816  0.656E+00  0.219E+00  0.219E+00  0.219E+00
   2.826  0.667E+00  0.222E+00  0.222E+00  0.222E+00
   2.836  0.666E+00  0.222E+00  0.222E+00  0.222E+00
   2.846  0.656E+00  0.219E+00  0.219E+00  0.219E+00
   2.856  0.638E+00  0.213E+00  0.213E+00  0.213E+00
   2.866  0.618E+00  0.206E+00  0.206E+00  0.206E+00
   2.876  0.599E+00  0.200E+00  0.200E+00  0.200E+00
   2.886  0.584E+00  0.195E+00  0.195E+00  0.195E+00
   2.896  0.577E+00  0.192E+00  0.192E+00  0.192E+00
   2.906  0.578E+00  0.193E+00  0.193E+00  0.193E+00
   2.916  0.589E+00  0.196E+00  0.196E+00  0.196E+00
   2.926  0.607E+00  0.202E+00  0.202E+00  0.202E+00
   2.936  0.630E+00  0.210E+00  0.210E+00  0.210E+00
   2.946  0.653E+00  0.218E+00  0.218E+00  0.218E+00
   2.956  0.673E+00  0.224E+00  0.224E+00  0.224E+00
   2.966  0.687E+00  0.229E+00  0.229E+00  0.229E+00
   2.976  0.695E+00  0.232E+00  0.232E+00  0.232E+00
   2.986  0.698E+00  0.233E+00  0.233E+00  0.233E+00
   2.996  0.701E+00  0.234E+00  0.234E+00  0.234E+00
   3.006  0.706E+00  0.235E+00  0.235E+00  0.235E+00
   3.016  0.715E+00  0.238E+00  0.238E+00  0.238E+00
   3.026  0.728E+00  0.243E+00  0.243E+00  0.243E+00
   3.036  0.741E+00  0.247E+00  0.247E+00  0.247E+00
   3.046  0.752E+00  0.251E+00  0.251E+00  0.251E+00
   3.056  0.757E+00  0.252E+00  0.252E+00  0.252E+00
   3.066  0.755E+00  0.252E+00  0.252E+00  0.252E+00
   3.076  0.747E+00  0.249E+00  0.249E+00  0.249E+00
   3.086  0.736E+00  0.245E+00  0.245E+00  0.245E+00
   3.096  0.727E+00  0.242E+00  0.242E+00  0.242E+00
   3.106  0.722E+00  0.241E+00  0.241E+00  0.241E+00
   3.116  0.726E+00  0.242E+00  0.242E+00  0.242E+00
   3.126  0.736E+00  0.245E+00  0.245E+00  0.245E+00
   3.136  0.748E+00  0.249E+00  0.249E+00  0.249E+00
   3.146  0.754E+00  0.251E+00  0.251E+00  0.251E+00
   3.156  0.746E+00  0.249E+00  0.249E+00  0.249E+00
   3.166  0.716E+00  0.239E+00  0.239E+00  0.239E+00
   3.176  0.659E+00  0.220E+00  0.220E+00  0.220E+00
   3.186  0.577E+00  0.192E+00  0.192E+00  0.192E+00
   3.196  0.476E+00  0.159E+00  0.159E+00  0.159E+00
   3.206  0.369E+00  0.123E+00  0.123E+00  0.123E+00
   3.216  0.273E+00  0.909E-01  0.909E-01  0.909E-01
   3.226  0.207E+00  0.689E-01  0.689E-01  0.689E-01
   3.236  0.188E+00  0.628E-01  0.628E-01  0.628E-01
   3.246  0.230E+00  0.768E-01  0.768E-01  0.768E-01
   3.256  0.337E+00  0.112E+00  0.112E+00  0.112E+00
   3.266  0.503E+00  0.168E+00  0.168E+00  0.168E+00
   3.276  0.713E+00  0.238E+00  0.238E+00  0.238E+00
   3.286  0.942E+00  0.314E+00  0.314E+00  0.314E+00
   3.296  0.116E+01  0.387E+00  0.387E+00  0.387E+00
   3.306  0.134E+01  0.447E+00  0.447E+00  0.447E+00
   3.316  0.146E+01  0.487E+00  0.487E+00  0.487E+00
   3.326  0.150E+01  0.500E+00  0.500E+00  0.500E+00
   3.336  0.146E+01  0.487E+00  0.487E+00  0.487E+00
   3.346  0.135E+01  0.451E+00  0.451E+00  0.451E+00
   3.356  0.119E+01  0.395E+00  0.395E+00  0.395E+00
   3.366  0.985E+00  0.328E+00  0.328E+00  0.328E+00
   3.376  0.773E+00  0.258E+00  0.258E+00  0.258E+00
   3.386  0.570E+00  0.190E+00  0.190E+00  0.190E+00
   3.396  0.397E+00  0.132E+00  0.132E+00  0.132E+00
   3.406  0.268E+00  0.894E-01  0.894E-01  0.894E-01
   3.416  0.197E+00  0.656E-01  0.656E-01  0.656E-01
   3.426  0.189E+00  0.630E-01  0.630E-01  0.630E-01
   3.436  0.245E+00  0.818E-01  0.818E-01  0.818E-01
   3.446  0.359E+00  0.120E+00  0.120E+00  0.120E+00
   3.456  0.517E+00  0.172E+00  0.172E+00  0.172E+00
   3.466  0.697E+00  0.232E+00  0.232E+00  0.232E+00
   3.476  0.876E+00  0.292E+00  0.292E+00  0.292E+00
   3.486  0.103E+01  0.343E+00  0.343E+00  0.343E+00
   3.496  0.114E+01  0.379E+00  0.379E+00  0.379E+00
   3.506  0.119E+01  0.395E+00  0.395E+00  0.395E+00
   3.516  0.117E+01  0.390E+00  0.390E+00  0.390E+00
   3.526  0.110E+01  0.367E+00  0.367E+00  0.367E+00
   3.536  0.989E+00  0.330E+00  0.330E+00  0.330E+00
   3.546  0.855E+00  0.285E+00  0.285E+00  0.285E+00
   3.556  0.719E+00  0.240E+00  0.240E+00  0.240E+00
   3.566  0.597E+00  0.199E+00  0.199E+00  0.199E+00
   3.576  0.498E+00  0.166E+00  0.166E+00  0.166E+00
   3.586  0.426E+00  0.142E+00  0.142E+00  0.142E+00
   3.596  0.378E+00  0.126E+00  0.126E+00  0.126E+00
   3.606  0.349E+00  0.116E+00  0.116E+00  0.116E+00
   3.616  0.332E+00  0.111E+00  0.111E+00  0.111E+00
   3.626  0.322E+00  0.107E+00  0.107E+00  0.107E+00
   3.636  0.314E+00  0.105E+00  0.105E+00  0.105E+00
   3.646  0.308E+00  0.103E+00  0.103E+00  0.103E+00
   3.656  0.303E+00  0.101E+00  0.101E+00  0.101E+00
   3.666  0.303E+00  0.101E+00  0.101E+00  0.101E+00
   3.676  0.312E+00  0.104E+00  0.104E+00  0.104E+00
   3.686  0.335E+00  0.112E+00  0.112E+00  0.112E+00
   3.696  0.377E+00  0.126E+00  0.126E+00  0.126E+00
   3.706  0.443E+00  0.148E+00  0.148E+00  0.148E+00
   3.716  0.534E+00  0.178E+00  0.178E+00  0.178E+00
   3.726  0.649E+00  0.216E+00  0.216E+00  0.216E+00
   3.736  0.780E+00  0.260E+00  0.260E+00  0.260E+00
   3.746  0.915E+00  0.305E+00  0.305E+00  0.305E+00
   3.756  0.104E+01  0.346E+00  0.346E+00  0.346E+00
   3.766  0.113E+01  0.376E+00  0.376E+00  0.376E+00
   3.776  0.118E+01  0.392E+00  0.392E+00  0.392E+00
   3.786  0.117E+01  0.390E+00  0.390E+00  0.390E+00
   3.796  0.111E+01  0.370E+00  0.370E+00  0.370E+00
   3.806  0.101E+01  0.335E+00  0.335E+00  0.335E+00
   3.816  0.872E+00  0.291E+00  0.291E+00  0.291E+00
   3.826  0.731E+00  0.244E+00  0.244E+00  0.244E+00
   3.836  0.602E+00  0.201E+00  0.201E+00  0.201E+00
   3.846  0.501E+00  0.167E+00  0.167E+00  0.167E+00
   3.856  0.437E+00  0.146E+00  0.146E+00  0.146E+00
   3.866  0.412E+00  0.137E+00  0.137E+00  0.137E+00
   3.876  0.423E+00  0.141E+00  0.141E+00  0.141E+00
   3.886  0.460E+00  0.153E+00  0.153E+00  0.153E+00
   3.896  0.510E+00  0.170E+00  0.170E+00  0.170E+00
   3.906  0.563E+00  0.188E+00  0.188E+00  0.188E+00
   3.916  0.609E+00  0.203E+00  0.203E+00  0.203E+00
   3.926  0.644E+00  0.215E+00  0.215E+00  0.215E+00
   3.936  0.665E+00  0.222E+00  0.222E+00  0.222E+00
   3.946  0.675E+00  0.225E+00  0.225E+00  0.225E+00
   3.956  0.679E+00  0.226E+00  0.226E+00  0.226E+00
   3.966  0.680E+00  0.227E+00  0.227E+00  0.227E+00
   3.976  0.681E+00  0.227E+00  0.227E+00  0.227E+00
   3.986  0.682E+00  0.227E+00  0.227E+00  0.227E+00
   3.996  0.682E+00  0.227E+00  0.227E+00  0.227E+00
   4.006  0.676E+00  0.225E+00  0.225E+00  0.225E+00
   4.016  0.662E+00  0.221E+00  0.221E+00  0.221E+00
   4.026  0.640E+00  0.213E+00  0.213E+00  0.213E+00
   4.036  0.610E+00  0.203E+00  0.203E+00  0.203E+00
   4.046  0.576E+00  0.192E+00  0.192E+00  0.192E+00
   4.056  0.542E+00  0.181E+00  0.181E+00  0.181E+00
   4.066  0.513E+00  0.171E+00  0.171E+00  0.171E+00
   4.076  0.491E+00  0.164E+00  0.164E+00  0.164E+00
   4.086  0.478E+00  0.159E+00  0.159E+00  0.159E+00
   4.096  0.472E+00  0.157E+00  0.157E+00  0.157E+00
   4.106  0.471E+00  0.157E+00  0.157E+00  0.157E+00
   4.116  0.473E+00  0.158E+00  0.158E+00  0.158E+00
   4.126  0.477E+00  0.159E+00  0.159E+00  0.159E+00
   4.136  0.479E+00  0.160E+00  0.160E+00  0.160E+00
   4.146  0.482E+00  0.161E+00  0.161E+00  0.161E+00
   4.156  0.485E+00  0.162E+00  0.162E+00  0.162E+00
   4.166  0.491E+00  0.164E+00  0.164E+00  0.164E+00
   4.176  0.506E+00  0.169E+00  0.169E+00  0.169E+00
   4.186  0.532E+00  0.177E+00  0.177E+00  0.177E+00
   4.196  0.575E+00  0.192E+00  0.192E+00  0.192E+00
   4.206  0.634E+00  0.211E+00  0.211E+00  0.211E+00
   4.216  0.709E+00  0.236E+00  0.236E+00  0.236E+00
   4.226  0.794E+00  0.265E+00  0.265E+00  0.265E+00
   4.236  0.880E+00  0.293E+00  0.293E+00  0.293E+00
   4.246  0.958E+00  0.319E+00  0.319E+00  0.319E+00
   4.256  0.102E+01  0.339E+00  0.339E+00  0.339E+00
   4.266  0.106E+01  0.352E+00  0.352E+00  0.352E+00
   4.276  0.107E+01  0.356E+00  0.356E+00  0.356E+00
   4.286  0.106E+01  0.353E+00  0.353E+00  0.353E+00
   4.296  0.103E+01  0.345E+00  0.345E+00  0.345E+00
   4.306  0.100E+01  0.333E+00  0.333E+00  0.333E+00
   4.316  0.959E+00  0.320E+00  0.320E+00  0.320E+00
   4.326  0.911E+00  0.304E+00  0.304E+00  0.304E+00
   4.336  0.855E+00  0.285E+00  0.285E+00  0.285E+00
   4.346  0.786E+00  0.262E+00  0.262E+00  0.262E+00
   4.356  0.703E+00  0.234E+00  0.234E+00  0.234E+00
   4.366  0.604E+00  0.201E+00  0.201E+00  0.201E+00
   4.376  0.494E+00  0.165E+00  0.165E+00  0.165E+00
   4.386  0.379E+00  0.126E+00  0.126E+00  0.126E+00
   4.396  0.270E+00  0.901E-01  0.901E-01  0.901E-01
   4.406  0.177E+00  0.591E-01  0.591E-01  0.591E-01
   4.416  0.109E+00  0.364E-01  0.364E-01  0.364E-01
   4.426  0.724E-01  0.241E-01  0.241E-01  0.241E-01
   4.436  0.686E-01  0.229E-01  0.229E-01  0.229E-01
   4.446  0.955E-01  0.318E-01  0.318E-01  0.318E-01
   4.456  0.147E+00  0.491E-01  0.491E-01  0.491E-01
   4.466  0.215E+00  0.718E-01  0.718E-01  0.718E-01
   4.476  0.291E+00  0.972E-01  0.972E-01  0.972E-01
   4.486  0.368E+00  0.123E+00  0.123E+00  0.123E+00
   4.496  0.442E+00  0.147E+00  0.147E+00  0.147E+00
   4.506  0.512E+00  0.171E+00  0.171E+00  0.171E+00
   4.516  0.582E+00  0.194E+00  0.194E+00  0.194E+00
   4.526  0.657E+00  0.219E+00  0.219E+00  0.219E+00
   4.536  0.738E+00  0.246E+00  0.246E+00  0.246E+00
   4.546  0.824E+00  0.275E+00  0.275E+00  0.275E+00
   4.556  0.908E+00  0.303E+00  0.303E+00  0.303E+00
   4.566  0.978E+00  0.326E+00  0.326E+00  0.326E+00
   4.576  0.102E+01  0.341E+00  0.341E+00  0.341E+00
   4.586  0.103E+01  0.344E+00  0.344E+00  0.344E+00
   4.596  0.100E+01  0.334E+00  0.334E+00  0.334E+00
   4.606  0.931E+00  0.310E+00  0.310E+00  0.310E+00
   4.616  0.832E+00  0.277E+00  0.277E+00  0.277E+00
   4.626  0.716E+00  0.239E+00  0.239E+00  0.239E+00
   4.636  0.598E+00  0.199E+00  0.199E+00  0.199E+00
   4.646  0.490E+00  0.163E+00  0.163E+00  0.163E+00
   4.656  0.400E+00  0.133E+00  0.133E+00  0.133E+00
   4.666  0.331E+00  0.110E+00  0.110E+00  0.110E+00
   4.676  0.284E+00  0.947E-01  0.947E-01  0.947E-01
   4.686  0.255E+00  0.850E-01  0.850E-01  0.850E-01
   4.696  0.239E+00  0.796E-01  0.796E-01  0.796E-01
   4.706  0.232E+00  0.773E-01  0.773E-01  0.773E-01
   4.716  0.230E+00  0.765E-01  0.765E-01  0.765E-01
   4.726  0.229E+00  0.763E-01  0.763E-01  0.763E-01
   4.736  0.227E+00  0.757E-01  0.757E-01  0.757E-01
   4.746  0.223E+00  0.742E-01  0.742E-01  0.742E-01
   4.756  0.213E+00  0.710E-01  0.710E-01  0.710E-01
   4.766  0.198E+00  0.661E-01  0.661E-01  0.661E-01
   4.776  0.179E+00  0.596E-01  0.596E-01  0.596E-01
   4.786  0.158E+00  0.527E-01  0.527E-01  0.527E-01
   4.796  0.141E+00  0.469E-01  0.469E-01  0.469E-01
   4.806  0.134E+00  0.446E-01  0.446E-01  0.446E-01
   4.816  0.145E+00  0.483E-01  0.483E-01  0.483E-01
   4.826  0.179E+00  0.597E-01  0.597E-01  0.597E-01
   4.836  0.239E+00  0.796E-01  0.796E-01  0.796E-01
   4.846  0.321E+00  0.107E+00  0.107E+00  0.107E+00
   4.856  0.418E+00  0.139E+00  0.139E+00  0.139E+00
   4.866  0.518E+00  0.173E+00  0.173E+00  0.173E+00
   4.876  0.607E+00  0.202E+00  0.202E+00  0.202E+00
   4.886  0.675E+00  0.225E+00  0.225E+00  0.225E+00
   4.896  0.713E+00  0.238E+00  0.238E+00  0.238E+00
   4.906  0.719E+00  0.240E+00  0.240E+00  0.240E+00
   4.916  0.694E+00  0.231E+00  0.231E+00  0.231E+00
   4.926  0.643E+00  0.214E+00  0.214E+00  0.214E+00
   4.936  0.575E+00  0.192E+00  0.192E+00  0.192E+00
   4.946  0.498E+00  0.166E+00  0.166E+00  0.166E+00
   4.956  0.418E+00  0.139E+00  0.139E+00  0.139E+00
   4.966  0.342E+00  0.114E+00  0.114E+00  0.114E+00
   4.976  0.274E+00  0.913E-01  0.913E-01  0.913E-01
   4.986  0.217E+00  0.722E-01  0.722E-01  0.722E-01
   4.996  0.172E+00  0.574E-01  0.574E-01  0.574E-01
   5.006  0.141E+00  0.471E-01  0.471E-01  0.471E-01
   5.016  0.124E+00  0.414E-01  0.414E-01  0.414E-01
   5.026  0.120E+00  0.401E-01  0.401E-01  0.401E-01
   5.036  0.129E+00  0.429E-01  0.429E-01  0.429E-01
   5.046  0.148E+00  0.493E-01  0.493E-01  0.493E-01
   5.056  0.175E+00  0.584E-01  0.584E-01  0.584E-01
   5.066  0.208E+00  0.694E-01  0.694E-01  0.694E-01
   5.076  0.243E+00  0.811E-01  0.811E-01  0.811E-01
   5.086  0.278E+00  0.927E-01  0.927E-01  0.927E-01
   5.096  0.309E+00  0.103E+00  0.103E+00  0.103E+00
   5.106  0.336E+00  0.112E+00  0.112E+00  0.112E+00
   5.116  0.358E+00  0.119E+00  0.119E+00  0.119E+00
   5.126  0.373E+00  0.124E+00  0.124E+00  0.124E+00
   5.136  0.382E+00  0.127E+00  0.127E+00  0.127E+00
   5.146  0.384E+00  0.128E+00  0.128E+00  0.128E+00
   5.156  0.379E+00  0.126E+00  0.126E+00  0.126E+00
   5.166  0.364E+00  0.121E+00  0.121E+00  0.121E+00
   5.176  0.342E+00  0.114E+00  0.114E+00  0.114E+00
   5.186  0.314E+00  0.105E+00  0.105E+00  0.105E+00
   5.196  0.283E+00  0.945E-01  0.945E-01  0.945E-01
   5.206  0.254E+00  0.847E-01  0.847E-01  0.847E-01
   5.216  0.230E+00  0.767E-01  0.767E-01  0.767E-01
   5.226  0.214E+00  0.713E-01  0.713E-01  0.713E-01
   5.236  0.205E+00  0.684E-01  0.684E-01  0.684E-01
   5.246  0.203E+00  0.675E-01  0.675E-01  0.675E-01
   5.256  0.202E+00  0.673E-01  0.673E-01  0.673E-01
   5.266  0.199E+00  0.664E-01  0.664E-01  0.664E-01
   5.276  0.191E+00  0.637E-01  0.637E-01  0.637E-01
   5.286  0.176E+00  0.585E-01  0.585E-01  0.585E-01
   5.296  0.153E+00  0.510E-01  0.510E-01  0.510E-01
   5.306  0.125E+00  0.417E-01  0.417E-01  0.417E-01
   5.316  0.957E-01  0.319E-01  0.319E-01  0.319E-01
   5.326  0.685E-01  0.228E-01  0.228E-01  0.228E-01
   5.336  0.475E-01  0.158E-01  0.158E-01  0.158E-01
   5.346  0.358E-01  0.119E-01  0.119E-01  0.119E-01
   5.356  0.352E-01  0.117E-01  0.117E-01  0.117E-01
   5.366  0.458E-01  0.153E-01  0.153E-01  0.153E-01
   5.376  0.660E-01  0.220E-01  0.220E-01  0.220E-01
   5.386  0.926E-01  0.309E-01  0.309E-01  0.309E-01
   5.396  0.122E+00  0.405E-01  0.405E-01  0.405E-01
   5.406  0.149E+00  0.497E-01  0.497E-01  0.497E-01
   5.416  0.172E+00  0.572E-01  0.572E-01  0.572E-01
   5.426  0.188E+00  0.625E-01  0.625E-01  0.625E-01
   5.436  0.197E+00  0.657E-01  0.657E-01  0.657E-01
   5.446  0.201E+00  0.671E-01  0.671E-01  0.671E-01
   5.456  0.202E+00  0.674E-01  0.674E-01  0.674E-01
   5.466  0.201E+00  0.671E-01  0.671E-01  0.671E-01
   5.476  0.199E+00  0.664E-01  0.664E-01  0.664E-01
   5.486  0.196E+00  0.652E-01  0.652E-01  0.652E-01
   5.496  0.188E+00  0.628E-01  0.628E-01  0.628E-01
   5.506  0.176E+00  0.587E-01  0.587E-01  0.587E-01
   5.516  0.158E+00  0.526E-01  0.526E-01  0.526E-01
   5.526  0.134E+00  0.446E-01  0.446E-01  0.446E-01
   5.536  0.106E+00  0.353E-01  0.353E-01  0.353E-01
   5.546  0.768E-01  0.256E-01  0.256E-01  0.256E-01
   5.556  0.491E-01  0.164E-01  0.164E-01  0.164E-01
   5.566  0.251E-01  0.837E-02  0.837E-02  0.837E-02
   5.576  0.629E-02  0.210E-02  0.210E-02  0.210E-02
   5.586 -0.704E-02 -0.235E-02 -0.235E-02 -0.235E-02
   5.596 -0.153E-01 -0.509E-02 -0.509E-02 -0.509E-02
   5.606 -0.191E-01 -0.635E-02 -0.635E-02 -0.635E-02
   5.616 -0.188E-01 -0.627E-02 -0.627E-02 -0.627E-02
   5.626 -0.145E-01 -0.482E-02 -0.482E-02 -0.482E-02
   5.636 -0.544E-02 -0.181E-02 -0.181E-02 -0.181E-02
   5.646  0.908E-02  0.303E-02  0.303E-02  0.303E-02
   5.656  0.296E-01  0.988E-02  0.988E-02  0.988E-02
   5.666  0.560E-01  0.187E-01  0.187E-01  0.187E-01
   5.676  0.866E-01  0.289E-01  0.289E-01  0.289E-01
   5.686  0.119E+00  0.396E-01  0.396E-01  0.396E-01
   5.696  0.148E+00  0.495E-01  0.495E-01  0.495E-01
   5.706  0.172E+00  0.572E-01  0.572E-01  0.572E-01
   5.716  0.185E+00  0.616E-01  0.616E-01  0.616E-01
   5.726  0.185E+00  0.618E-01  0.618E-01  0.618E-01
   5.736  0.174E+00  0.580E-01  0.580E-01  0.580E-01
   5.746  0.152E+00  0.507E-01  0.507E-01  0.507E-01
   5.756  0.124E+00  0.412E-01  0.412E-01  0.412E-01
   5.766  0.928E-01  0.309E-01  0.309E-01  0.309E-01
   5.776  0.637E-01  0.212E-01  0.212E-01  0.212E-01
   5.786  0.397E-01  0.132E-01  0.132E-01  0.132E-01
   5.796  0.223E-01  0.744E-02  0.744E-02  0.744E-02
   5.806  0.120E-01  0.399E-02  0.399E-02  0.399E-02
   5.816  0.761E-02  0.254E-02  0.254E-02  0.254E-02
   5.826  0.750E-02  0.250E-02  0.250E-02  0.250E-02
   5.836  0.966E-02  0.322E-02  0.322E-02  0.322E-02
   5.846  0.123E-01  0.410E-02  0.410E-02  0.410E-02
   5.856  0.142E-01  0.473E-02  0.473E-02  0.473E-02
   5.866  0.147E-01  0.489E-02  0.489E-02  0.489E-02
   5.876  0.136E-01  0.454E-02  0.454E-02  0.454E-02
   5.886  0.114E-01  0.381E-02  0.381E-02  0.381E-02
   5.896  0.857E-02  0.286E-02  0.286E-02  0.286E-02
   5.906  0.564E-02  0.188E-02  0.188E-02  0.188E-02
   5.916  0.307E-02  0.102E-02  0.102E-02  0.102E-02
   5.926  0.110E-02  0.365E-03  0.365E-03  0.365E-03
   5.936 -0.203E-03 -0.677E-04 -0.677E-04 -0.677E-04
   5.946 -0.898E-03 -0.299E-03 -0.299E-03 -0.299E-03
   5.956 -0.114E-02 -0.380E-03 -0.380E-03 -0.380E-03
   5.966 -0.109E-02 -0.364E-03 -0.364E-03 -0.364E-03
   5.976 -0.902E-03 -0.301E-03 -0.301E-03 -0.301E-03
   5.986 -0.670E-03 -0.223E-03 -0.223E-03 -0.223E-03
   5.996 -0.458E-03 -0.153E-03 -0.153E-03 -0.153E-03
   6.006 -0.292E-03 -0.972E-04 -0.972E-04 -0.972E-04
   6.016 -0.174E-03 -0.580E-04 -0.580E-04 -0.580E-04
   6.026 -0.976E-04 -0.325E-04 -0.325E-04 -0.325E-04
   6.036 -0.518E-04 -0.173E-04 -0.173E-04 -0.173E-04
   6.046 -0.260E-04 -0.868E-05 -0.868E-05 -0.868E-05
   6.056 -0.124E-04 -0.414E-05 -0.414E-05 -0.414E-05
   6.066 -0.562E-05 -0.187E-05 -0.187E-05 -0.187E-05
   6.076 -0.242E-05 -0.807E-06 -0.807E-06 -0.807E-06
   6.086 -0.993E-06 -0.331E-06 -0.331E-06 -0.331E-06
   6.096 -0.388E-06 -0.129E-06 -0.129E-06 -0.129E-06
   6.106 -0.144E-06 -0.481E-07 -0.481E-07 -0.481E-07
   6.116 -0.513E-07 -0.171E-07 -0.171E-07 -0.171E-07
   6.126 -0.174E-07 -0.579E-08 -0.579E-08 -0.579E-08
   6.136 -0.562E-08 -0.187E-08 -0.187E-08 -0.187E-08
   6.146 -0.174E-08 -0.580E-09 -0.580E-09 -0.580E-09
   6.156 -0.538E-09 -0.179E-09 -0.179E-09 -0.179E-09
   6.166 -0.248E-09 -0.828E-10 -0.828E-10 -0.828E-10
   6.176 -0.417E-09 -0.139E-09 -0.139E-09 -0.139E-09
   6.186 -0.131E-08 -0.438E-09 -0.438E-09 -0.438E-09
   6.196 -0.430E-08 -0.143E-08 -0.143E-08 -0.143E-08
   6.206 -0.135E-07 -0.451E-08 -0.451E-08 -0.451E-08
   6.216 -0.406E-07 -0.135E-07 -0.135E-07 -0.135E-07
   6.226 -0.116E-06 -0.388E-07 -0.388E-07 -0.388E-07
   6.236 -0.318E-06 -0.106E-06 -0.106E-06 -0.106E-06
   6.246 -0.829E-06 -0.276E-06 -0.276E-06 -0.276E-06
   6.256 -0.206E-05 -0.685E-06 -0.685E-06 -0.685E-06
   6.266 -0.486E-05 -0.162E-05 -0.162E-05 -0.162E-05
   6.276 -0.109E-04 -0.364E-05 -0.364E-05 -0.364E-05
   6.286 -0.233E-04 -0.778E-05 -0.778E-05 -0.778E-05
   6.296 -0.474E-04 -0.158E-04 -0.158E-04 -0.158E-04
   6.306 -0.910E-04 -0.303E-04 -0.303E-04 -0.303E-04
   6.316 -0.166E-03 -0.552E-04 -0.552E-04 -0.552E-04
   6.326 -0.284E-03 -0.946E-04 -0.946E-04 -0.946E-04
   6.336 -0.457E-03 -0.152E-03 -0.152E-03 -0.152E-03
   6.346 -0.686E-03 -0.229E-03 -0.229E-03 -0.229E-03
   6.356 -0.952E-03 -0.317E-03 -0.317E-03 -0.317E-03
   6.366 -0.120E-02 -0.400E-03 -0.400E-03 -0.400E-03
   6.376 -0.132E-02 -0.441E-03 -0.441E-03 -0.441E-03
   6.386 -0.117E-02 -0.390E-03 -0.390E-03 -0.390E-03
   6.396 -0.539E-03 -0.180E-03 -0.180E-03 -0.180E-03
   6.406  0.776E-03  0.259E-03  0.259E-03  0.259E-03
   6.416  0.293E-02  0.976E-03  0.976E-03  0.976E-03
   6.426  0.595E-02  0.198E-02  0.198E-02  0.198E-02
   6.436  0.970E-02  0.323E-02  0.323E-02  0.323E-02
   6.446  0.138E-01  0.461E-02  0.461E-02  0.461E-02
   6.456  0.178E-01  0.593E-02  0.593E-02  0.593E-02
   6.466  0.210E-01  0.700E-02  0.700E-02  0.700E-02
   6.476  0.228E-01  0.761E-02  0.761E-02  0.761E-02
   6.486  0.229E-01  0.763E-02  0.763E-02  0.763E-02
   6.496  0.211E-01  0.704E-02  0.704E-02  0.704E-02
   6.506  0.178E-01  0.593E-02  0.593E-02  0.593E-02
   6.516  0.134E-01  0.448E-02  0.448E-02  0.448E-02
   6.526  0.888E-02  0.296E-02  0.296E-02  0.296E-02
   6.536  0.505E-02  0.168E-02  0.168E-02  0.168E-02
   6.546  0.278E-02  0.927E-03  0.927E-03  0.927E-03
   6.556  0.276E-02  0.920E-03  0.920E-03  0.920E-03
   6.566  0.540E-02  0.180E-02  0.180E-02  0.180E-02
   6.576  0.108E-01  0.361E-02  0.361E-02  0.361E-02
   6.586  0.189E-01  0.628E-02  0.628E-02  0.628E-02
   6.596  0.291E-01  0.969E-02  0.969E-02  0.969E-02
   6.606  0.409E-01  0.136E-01  0.136E-01  0.136E-01
   6.616  0.537E-01  0.179E-01  0.179E-01  0.179E-01
   6.626  0.667E-01  0.222E-01  0.222E-01  0.222E-01
   6.636  0.789E-01  0.263E-01  0.263E-01  0.263E-01
   6.646  0.895E-01  0.298E-01  0.298E-01  0.298E-01
   6.656  0.974E-01  0.325E-01  0.325E-01  0.325E-01
   6.666  0.102E+00  0.339E-01  0.339E-01  0.339E-01
   6.676  0.101E+00  0.338E-01  0.338E-01  0.338E-01
   6.686  0.971E-01  0.324E-01  0.324E-01  0.324E-01
   6.696  0.891E-01  0.297E-01  0.297E-01  0.297E-01
   6.706  0.794E-01  0.265E-01  0.265E-01  0.265E-01
   6.716  0.702E-01  0.234E-01  0.234E-01  0.234E-01
   6.726  0.640E-01  0.213E-01  0.213E-01  0.213E-01
   6.736  0.624E-01  0.208E-01  0.208E-01  0.208E-01
   6.746  0.664E-01  0.221E-01  0.221E-01  0.221E-01
   6.756  0.753E-01  0.251E-01  0.251E-01  0.251E-01
   6.766  0.871E-01  0.290E-01  0.290E-01  0.290E-01
   6.776  0.994E-01  0.331E-01  0.331E-01  0.331E-01
   6.786  0.109E+00  0.365E-01  0.365E-01  0.365E-01
   6.796  0.115E+00  0.383E-01  0.383E-01  0.383E-01
   6.806  0.115E+00  0.383E-01  0.383E-01  0.383E-01
   6.816  0.109E+00  0.364E-01  0.364E-01  0.364E-01
   6.826  0.984E-01  0.328E-01  0.328E-01  0.328E-01
   6.836  0.840E-01  0.280E-01  0.280E-01  0.280E-01
   6.846  0.676E-01  0.225E-01  0.225E-01  0.225E-01
   6.856  0.512E-01  0.171E-01  0.171E-01  0.171E-01
   6.866  0.364E-01  0.121E-01  0.121E-01  0.121E-01
   6.876  0.248E-01  0.827E-02  0.827E-02  0.827E-02
   6.886  0.179E-01  0.596E-02  0.596E-02  0.596E-02
   6.896  0.166E-01  0.553E-02  0.553E-02  0.553E-02
   6.906  0.213E-01  0.711E-02  0.711E-02  0.711E-02
   6.916  0.316E-01  0.105E-01  0.105E-01  0.105E-01
   6.926  0.462E-01  0.154E-01  0.154E-01  0.154E-01
   6.936  0.627E-01  0.209E-01  0.209E-01  0.209E-01
   6.946  0.786E-01  0.262E-01  0.262E-01  0.262E-01
   6.956  0.910E-01  0.303E-01  0.303E-01  0.303E-01
   6.966  0.978E-01  0.326E-01  0.326E-01  0.326E-01
   6.976  0.979E-01  0.326E-01  0.326E-01  0.326E-01
   6.986  0.917E-01  0.306E-01  0.306E-01  0.306E-01
   6.996  0.811E-01  0.270E-01  0.270E-01  0.270E-01
   7.006  0.693E-01  0.231E-01  0.231E-01  0.231E-01
   7.016  0.601E-01  0.200E-01  0.200E-01  0.200E-01
   7.026  0.577E-01  0.192E-01  0.192E-01  0.192E-01
   7.036  0.652E-01  0.217E-01  0.217E-01  0.217E-01
   7.046  0.845E-01  0.282E-01  0.282E-01  0.282E-01
   7.056  0.115E+00  0.383E-01  0.383E-01  0.383E-01
   7.066  0.154E+00  0.513E-01  0.513E-01  0.513E-01
   7.076  0.197E+00  0.656E-01  0.656E-01  0.656E-01
   7.086  0.237E+00  0.789E-01  0.789E-01  0.789E-01
   7.096  0.268E+00  0.893E-01  0.893E-01  0.893E-01
   7.106  0.285E+00  0.951E-01  0.951E-01  0.951E-01
   7.116  0.286E+00  0.953E-01  0.953E-01  0.953E-01
   7.126  0.270E+00  0.900E-01  0.900E-01  0.900E-01
   7.136  0.242E+00  0.805E-01  0.805E-01  0.805E-01
   7.146  0.206E+00  0.687E-01  0.687E-01  0.687E-01
   7.156  0.170E+00  0.568E-01  0.568E-01  0.568E-01
   7.166  0.142E+00  0.472E-01  0.472E-01  0.472E-01
   7.176  0.124E+00  0.414E-01  0.414E-01  0.414E-01
   7.186  0.121E+00  0.402E-01  0.402E-01  0.402E-01
   7.196  0.131E+00  0.436E-01  0.436E-01  0.436E-01
   7.206  0.151E+00  0.505E-01  0.505E-01  0.505E-01
   7.216  0.178E+00  0.594E-01  0.594E-01  0.594E-01
   7.226  0.206E+00  0.686E-01  0.686E-01  0.686E-01
   7.236  0.230E+00  0.766E-01  0.766E-01  0.766E-01
   7.246  0.247E+00  0.822E-01  0.822E-01  0.822E-01
   7.256  0.255E+00  0.849E-01  0.849E-01  0.849E-01
   7.266  0.253E+00  0.844E-01  0.844E-01  0.844E-01
   7.276  0.243E+00  0.812E-01  0.812E-01  0.812E-01
   7.286  0.227E+00  0.758E-01  0.758E-01  0.758E-01
   7.296  0.207E+00  0.690E-01  0.690E-01  0.690E-01
   7.306  0.186E+00  0.620E-01  0.620E-01  0.620E-01
   7.316  0.167E+00  0.558E-01  0.558E-01  0.558E-01
   7.326  0.155E+00  0.517E-01  0.517E-01  0.517E-01
   7.336  0.152E+00  0.506E-01  0.506E-01  0.506E-01
   7.346  0.160E+00  0.533E-01  0.533E-01  0.533E-01
   7.356  0.180E+00  0.599E-01  0.599E-01  0.599E-01
   7.366  0.209E+00  0.696E-01  0.696E-01  0.696E-01
   7.376  0.242E+00  0.807E-01  0.807E-01  0.807E-01
   7.386  0.274E+00  0.912E-01  0.912E-01  0.912E-01
   7.396  0.296E+00  0.988E-01  0.988E-01  0.988E-01
   7.406  0.305E+00  0.102E+00  0.102E+00  0.102E+00
   7.416  0.297E+00  0.989E-01  0.989E-01  0.989E-01
   7.426  0.272E+00  0.907E-01  0.907E-01  0.907E-01
   7.436  0.234E+00  0.779E-01  0.779E-01  0.779E-01
   7.446  0.187E+00  0.624E-01  0.624E-01  0.624E-01
   7.456  0.138E+00  0.461E-01  0.461E-01  0.461E-01
   7.466  0.923E-01  0.308E-01  0.308E-01  0.308E-01
   7.476  0.538E-01  0.179E-01  0.179E-01  0.179E-01
   7.486  0.264E-01  0.880E-02  0.880E-02  0.880E-02
   7.496  0.130E-01  0.435E-02  0.435E-02  0.435E-02
   7.506  0.162E-01  0.539E-02  0.539E-02  0.539E-02
   7.516  0.377E-01  0.126E-01  0.126E-01  0.126E-01
   7.526  0.786E-01  0.262E-01  0.262E-01  0.262E-01
   7.536  0.138E+00  0.461E-01  0.461E-01  0.461E-01
   7.546  0.214E+00  0.713E-01  0.713E-01  0.713E-01
   7.556  0.300E+00  0.100E+00  0.100E+00  0.100E+00
   7.566  0.389E+00  0.130E+00  0.130E+00  0.130E+00
   7.576  0.472E+00  0.157E+00  0.157E+00  0.157E+00
   7.586  0.539E+00  0.180E+00  0.180E+00  0.180E+00
   7.596  0.584E+00  0.195E+00  0.195E+00  0.195E+00
   7.606  0.602E+00  0.201E+00  0.201E+00  0.201E+00
   7.616  0.590E+00  0.197E+00  0.197E+00  0.197E+00
   7.626  0.550E+00  0.183E+00  0.183E+00  0.183E+00
   7.636  0.488E+00  0.163E+00  0.163E+00  0.163E+00
   7.646  0.411E+00  0.137E+00  0.137E+00  0.137E+00
   7.656  0.329E+00  0.110E+00  0.110E+00  0.110E+00
   7.666  0.250E+00  0.832E-01  0.832E-01  0.832E-01
   7.676  0.184E+00  0.612E-01  0.612E-01  0.612E-01
   7.686  0.138E+00  0.459E-01  0.459E-01  0.459E-01
   7.696  0.117E+00  0.389E-01  0.389E-01  0.389E-01
   7.706  0.121E+00  0.404E-01  0.404E-01  0.404E-01
   7.716  0.148E+00  0.494E-01  0.494E-01  0.494E-01
   7.726  0.191E+00  0.638E-01  0.638E-01  0.638E-01
   7.736  0.242E+00  0.808E-01  0.808E-01  0.808E-01
   7.746  0.292E+00  0.974E-01  0.974E-01  0.974E-01
   7.756  0.334E+00  0.111E+00  0.111E+00  0.111E+00
   7.766  0.364E+00  0.121E+00  0.121E+00  0.121E+00
   7.776  0.380E+00  0.127E+00  0.127E+00  0.127E+00
   7.786  0.385E+00  0.128E+00  0.128E+00  0.128E+00
   7.796  0.384E+00  0.128E+00  0.128E+00  0.128E+00
   7.806  0.381E+00  0.127E+00  0.127E+00  0.127E+00
   7.816  0.380E+00  0.127E+00  0.127E+00  0.127E+00
   7.826  0.384E+00  0.128E+00  0.128E+00  0.128E+00
   7.836  0.393E+00  0.131E+00  0.131E+00  0.131E+00
   7.846  0.403E+00  0.134E+00  0.134E+00  0.134E+00
   7.856  0.410E+00  0.137E+00  0.137E+00  0.137E+00
   7.866  0.409E+00  0.136E+00  0.136E+00  0.136E+00
   7.876  0.397E+00  0.132E+00  0.132E+00  0.132E+00
   7.886  0.375E+00  0.125E+00  0.125E+00  0.125E+00
   7.896  0.346E+00  0.115E+00  0.115E+00  0.115E+00
   7.906  0.316E+00  0.105E+00  0.105E+00  0.105E+00
   7.916  0.294E+00  0.980E-01  0.980E-01  0.980E-01
   7.926  0.287E+00  0.956E-01  0.956E-01  0.956E-01
   7.936  0.299E+00  0.996E-01  0.996E-01  0.996E-01
   7.946  0.330E+00  0.110E+00  0.110E+00  0.110E+00
   7.956  0.375E+00  0.125E+00  0.125E+00  0.125E+00
   7.966  0.425E+00  0.142E+00  0.142E+00  0.142E+00
   7.976  0.471E+00  0.157E+00  0.157E+00  0.157E+00
   7.986  0.502E+00  0.167E+00  0.167E+00  0.167E+00
   7.996  0.513E+00  0.171E+00  0.171E+00  0.171E+00
   8.006  0.501E+00  0.167E+00  0.167E+00  0.167E+00
   8.016  0.469E+00  0.156E+00  0.156E+00  0.156E+00
   8.026  0.426E+00  0.142E+00  0.142E+00  0.142E+00
   8.036  0.379E+00  0.126E+00  0.126E+00  0.126E+00
   8.046  0.337E+00  0.112E+00  0.112E+00  0.112E+00
   8.056  0.307E+00  0.102E+00  0.102E+00  0.102E+00
   8.066  0.291E+00  0.969E-01  0.969E-01  0.969E-01
   8.076  0.289E+00  0.964E-01  0.964E-01  0.964E-01
   8.086  0.300E+00  0.999E-01  0.999E-01  0.999E-01
   8.096  0.318E+00  0.106E+00  0.106E+00  0.106E+00
   8.106  0.341E+00  0.114E+00  0.114E+00  0.114E+00
   8.116  0.366E+00  0.122E+00  0.122E+00  0.122E+00
   8.126  0.390E+00  0.130E+00  0.130E+00  0.130E+00
   8.136  0.413E+00  0.138E+00  0.138E+00  0.138E+00
   8.146  0.435E+00  0.145E+00  0.145E+00  0.145E+00
   8.156  0.455E+00  0.152E+00  0.152E+00  0.152E+00
   8.166  0.474E+00  0.158E+00  0.158E+00  0.158E+00
   8.176  0.490E+00  0.163E+00  0.163E+00  0.163E+00
   8.186  0.502E+00  0.167E+00  0.167E+00  0.167E+00
   8.196  0.509E+00  0.170E+00  0.170E+00  0.170E+00
   8.206  0.508E+00  0.169E+00  0.169E+00  0.169E+00
   8.216  0.496E+00  0.165E+00  0.165E+00  0.165E+00
   8.226  0.472E+00  0.157E+00  0.157E+00  0.157E+00
   8.236  0.434E+00  0.145E+00  0.145E+00  0.145E+00
   8.246  0.385E+00  0.128E+00  0.128E+00  0.128E+00
   8.256  0.329E+00  0.110E+00  0.110E+00  0.110E+00
   8.266  0.270E+00  0.901E-01  0.901E-01  0.901E-01
   8.276  0.217E+00  0.725E-01  0.725E-01  0.725E-01
   8.286  0.178E+00  0.592E-01  0.592E-01  0.592E-01
   8.296  0.156E+00  0.521E-01  0.521E-01  0.521E-01
   8.306  0.157E+00  0.525E-01  0.525E-01  0.525E-01
   8.316  0.180E+00  0.602E-01  0.602E-01  0.602E-01
   8.326  0.222E+00  0.741E-01  0.741E-01  0.741E-01
   8.336  0.277E+00  0.922E-01  0.922E-01  0.922E-01
   8.346  0.337E+00  0.112E+00  0.112E+00  0.112E+00
   8.356  0.398E+00  0.133E+00  0.133E+00  0.133E+00
   8.366  0.456E+00  0.152E+00  0.152E+00  0.152E+00
   8.376  0.510E+00  0.170E+00  0.170E+00  0.170E+00
   8.386  0.565E+00  0.188E+00  0.188E+00  0.188E+00
   8.396  0.621E+00  0.207E+00  0.207E+00  0.207E+00
   8.406  0.680E+00  0.227E+00  0.227E+00  0.227E+00
   8.416  0.738E+00  0.246E+00  0.246E+00  0.246E+00
   8.426  0.790E+00  0.263E+00  0.263E+00  0.263E+00
   8.436  0.826E+00  0.275E+00  0.275E+00  0.275E+00
   8.446  0.837E+00  0.279E+00  0.279E+00  0.279E+00
   8.456  0.819E+00  0.273E+00  0.273E+00  0.273E+00
   8.466  0.771E+00  0.257E+00  0.257E+00  0.257E+00
   8.476  0.699E+00  0.233E+00  0.233E+00  0.233E+00
   8.486  0.615E+00  0.205E+00  0.205E+00  0.205E+00
   8.496  0.529E+00  0.176E+00  0.176E+00  0.176E+00
   8.506  0.452E+00  0.151E+00  0.151E+00  0.151E+00
   8.516  0.392E+00  0.131E+00  0.131E+00  0.131E+00
   8.526  0.352E+00  0.117E+00  0.117E+00  0.117E+00
   8.536  0.330E+00  0.110E+00  0.110E+00  0.110E+00
   8.546  0.325E+00  0.108E+00  0.108E+00  0.108E+00
   8.556  0.330E+00  0.110E+00  0.110E+00  0.110E+00
   8.566  0.342E+00  0.114E+00  0.114E+00  0.114E+00
   8.576  0.355E+00  0.118E+00  0.118E+00  0.118E+00
   8.586  0.366E+00  0.122E+00  0.122E+00  0.122E+00
   8.596  0.374E+00  0.125E+00  0.125E+00  0.125E+00
   8.606  0.376E+00  0.125E+00  0.125E+00  0.125E+00
   8.616  0.373E+00  0.124E+00  0.124E+00  0.124E+00
   8.626  0.365E+00  0.122E+00  0.122E+00  0.122E+00
   8.636  0.351E+00  0.117E+00  0.117E+00  0.117E+00
   8.646  0.332E+00  0.111E+00  0.111E+00  0.111E+00
   8.656  0.307E+00  0.102E+00  0.102E+00  0.102E+00
   8.666  0.277E+00  0.923E-01  0.923E-01  0.923E-01
   8.676  0.244E+00  0.812E-01  0.812E-01  0.812E-01
   8.686  0.209E+00  0.696E-01  0.696E-01  0.696E-01
   8.696  0.177E+00  0.591E-01  0.591E-01  0.591E-01
   8.706  0.153E+00  0.510E-01  0.510E-01  0.510E-01
   8.716  0.141E+00  0.471E-01  0.471E-01  0.471E-01
   8.726  0.145E+00  0.483E-01  0.483E-01  0.483E-01
   8.736  0.165E+00  0.549E-01  0.549E-01  0.549E-01
   8.746  0.197E+00  0.658E-01  0.658E-01  0.658E-01
   8.756  0.237E+00  0.792E-01  0.792E-01  0.792E-01
   8.766  0.278E+00  0.926E-01  0.926E-01  0.926E-01
   8.776  0.311E+00  0.104E+00  0.104E+00  0.104E+00
   8.786  0.334E+00  0.111E+00  0.111E+00  0.111E+00
   8.796  0.344E+00  0.115E+00  0.115E+00  0.115E+00
   8.806  0.344E+00  0.115E+00  0.115E+00  0.115E+00
   8.816  0.339E+00  0.113E+00  0.113E+00  0.113E+00
   8.826  0.333E+00  0.111E+00  0.111E+00  0.111E+00
   8.836  0.329E+00  0.110E+00  0.110E+00  0.110E+00
   8.846  0.326E+00  0.109E+00  0.109E+00  0.109E+00
   8.856  0.321E+00  0.107E+00  0.107E+00  0.107E+00
   8.866  0.314E+00  0.105E+00  0.105E+00  0.105E+00
   8.876  0.302E+00  0.101E+00  0.101E+00  0.101E+00
   8.886  0.287E+00  0.958E-01  0.958E-01  0.958E-01
   8.896  0.276E+00  0.920E-01  0.920E-01  0.920E-01
   8.906  0.275E+00  0.917E-01  0.917E-01  0.917E-01
   8.916  0.291E+00  0.970E-01  0.970E-01  0.970E-01
   8.926  0.327E+00  0.109E+00  0.109E+00  0.109E+00
   8.936  0.383E+00  0.128E+00  0.128E+00  0.128E+00
   8.946  0.454E+00  0.151E+00  0.151E+00  0.151E+00
   8.956  0.531E+00  0.177E+00  0.177E+00  0.177E+00
   8.966  0.604E+00  0.201E+00  0.201E+00  0.201E+00
   8.976  0.667E+00  0.222E+00  0.222E+00  0.222E+00
   8.986  0.715E+00  0.238E+00  0.238E+00  0.238E+00
   8.996  0.746E+00  0.249E+00  0.249E+00  0.249E+00
   9.006  0.764E+00  0.255E+00  0.255E+00  0.255E+00
   9.016  0.774E+00  0.258E+00  0.258E+00  0.258E+00
   9.026  0.779E+00  0.260E+00  0.260E+00  0.260E+00
   9.036  0.784E+00  0.261E+00  0.261E+00  0.261E+00
   9.046  0.790E+00  0.263E+00  0.263E+00  0.263E+00
   9.056  0.796E+00  0.265E+00  0.265E+00  0.265E+00
   9.066  0.801E+00  0.267E+00  0.267E+00  0.267E+00
   9.076  0.801E+00  0.267E+00  0.267E+00  0.267E+00
   9.086  0.792E+00  0.264E+00  0.264E+00  0.264E+00
   9.096  0.773E+00  0.258E+00  0.258E+00  0.258E+00
   9.106  0.741E+00  0.247E+00  0.247E+00  0.247E+00
   9.116  0.697E+00  0.232E+00  0.232E+00  0.232E+00
   9.126  0.645E+00  0.215E+00  0.215E+00  0.215E+00
   9.136  0.590E+00  0.197E+00  0.197E+00  0.197E+00
   9.146  0.541E+00  0.180E+00  0.180E+00  0.180E+00
   9.156  0.507E+00  0.169E+00  0.169E+00  0.169E+00
   9.166  0.494E+00  0.165E+00  0.165E+00  0.165E+00
   9.176  0.507E+00  0.169E+00  0.169E+00  0.169E+00
   9.186  0.544E+00  0.181E+00  0.181E+00  0.181E+00
   9.196  0.600E+00  0.200E+00  0.200E+00  0.200E+00
   9.206  0.666E+00  0.222E+00  0.222E+00  0.222E+00
   9.216  0.729E+00  0.243E+00  0.243E+00  0.243E+00
   9.226  0.778E+00  0.259E+00  0.259E+00  0.259E+00
   9.236  0.807E+00  0.269E+00  0.269E+00  0.269E+00
   9.246  0.810E+00  0.270E+00  0.270E+00  0.270E+00
   9.256  0.792E+00  0.264E+00  0.264E+00  0.264E+00
   9.266  0.757E+00  0.252E+00  0.252E+00  0.252E+00
   9.276  0.715E+00  0.238E+00  0.238E+00  0.238E+00
   9.286  0.675E+00  0.225E+00  0.225E+00  0.225E+00
   9.296  0.644E+00  0.215E+00  0.215E+00  0.215E+00
   9.306  0.623E+00  0.208E+00  0.208E+00  0.208E+00
   9.316  0.611E+00  0.204E+00  0.204E+00  0.204E+00
   9.326  0.604E+00  0.201E+00  0.201E+00  0.201E+00
   9.336  0.598E+00  0.199E+00  0.199E+00  0.199E+00
   9.346  0.591E+00  0.197E+00  0.197E+00  0.197E+00
   9.356  0.582E+00  0.194E+00  0.194E+00  0.194E+00
   9.366  0.575E+00  0.192E+00  0.192E+00  0.192E+00
   9.376  0.573E+00  0.191E+00  0.191E+00  0.191E+00
   9.386  0.578E+00  0.193E+00  0.193E+00  0.193E+00
   9.396  0.592E+00  0.197E+00  0.197E+00  0.197E+00
   9.406  0.609E+00  0.203E+00  0.203E+00  0.203E+00
   9.416  0.622E+00  0.207E+00  0.207E+00  0.207E+00
   9.426  0.624E+00  0.208E+00  0.208E+00  0.208E+00
   9.436  0.608E+00  0.203E+00  0.203E+00  0.203E+00
   9.446  0.571E+00  0.190E+00  0.190E+00  0.190E+00
   9.456  0.516E+00  0.172E+00  0.172E+00  0.172E+00
   9.466  0.452E+00  0.151E+00  0.151E+00  0.151E+00
   9.476  0.390E+00  0.130E+00  0.130E+00  0.130E+00
   9.486  0.345E+00  0.115E+00  0.115E+00  0.115E+00
   9.496  0.329E+00  0.110E+00  0.110E+00  0.110E+00
   9.506  0.349E+00  0.116E+00  0.116E+00  0.116E+00
   9.516  0.407E+00  0.136E+00  0.136E+00  0.136E+00
   9.526  0.496E+00  0.165E+00  0.165E+00  0.165E+00
   9.536  0.600E+00  0.200E+00  0.200E+00  0.200E+00
   9.546  0.701E+00  0.234E+00  0.234E+00  0.234E+00
   9.556  0.780E+00  0.260E+00  0.260E+00  0.260E+00
   9.566  0.820E+00  0.273E+00  0.273E+00  0.273E+00
   9.576  0.814E+00  0.271E+00  0.271E+00  0.271E+00
   9.586  0.760E+00  0.253E+00  0.253E+00  0.253E+00
   9.596  0.669E+00  0.223E+00  0.223E+00  0.223E+00
   9.606  0.554E+00  0.185E+00  0.185E+00  0.185E+00
   9.616  0.433E+00  0.144E+00  0.144E+00  0.144E+00
   9.626  0.319E+00  0.106E+00  0.106E+00  0.106E+00
   9.636  0.225E+00  0.750E-01  0.750E-01  0.750E-01
   9.646  0.156E+00  0.521E-01  0.521E-01  0.521E-01
   9.656  0.115E+00  0.383E-01  0.383E-01  0.383E-01
   9.666  0.100E+00  0.334E-01  0.334E-01  0.334E-01
   9.676  0.109E+00  0.363E-01  0.363E-01  0.363E-01
   9.686  0.136E+00  0.454E-01  0.454E-01  0.454E-01
   9.696  0.176E+00  0.588E-01  0.588E-01  0.588E-01
   9.706  0.223E+00  0.742E-01  0.742E-01  0.742E-01
   9.716  0.267E+00  0.892E-01  0.892E-01  0.892E-01
   9.726  0.305E+00  0.102E+00  0.102E+00  0.102E+00
   9.736  0.330E+00  0.110E+00  0.110E+00  0.110E+00
   9.746  0.342E+00  0.114E+00  0.114E+00  0.114E+00
   9.756  0.344E+00  0.115E+00  0.115E+00  0.115E+00
   9.766  0.339E+00  0.113E+00  0.113E+00  0.113E+00
   9.776  0.334E+00  0.111E+00  0.111E+00  0.111E+00
   9.786  0.333E+00  0.111E+00  0.111E+00  0.111E+00
   9.796  0.341E+00  0.114E+00  0.114E+00  0.114E+00
   9.806  0.356E+00  0.119E+00  0.119E+00  0.119E+00
   9.816  0.379E+00  0.126E+00  0.126E+00  0.126E+00
   9.826  0.404E+00  0.135E+00  0.135E+00  0.135E+00
   9.836  0.430E+00  0.143E+00  0.143E+00  0.143E+00
   9.846  0.454E+00  0.151E+00  0.151E+00  0.151E+00
   9.856  0.472E+00  0.157E+00  0.157E+00  0.157E+00
   9.866  0.484E+00  0.161E+00  0.161E+00  0.161E+00
   9.876  0.490E+00  0.163E+00  0.163E+00  0.163E+00
   9.886  0.491E+00  0.164E+00  0.164E+00  0.164E+00
   9.896  0.489E+00  0.163E+00  0.163E+00  0.163E+00
   9.906  0.488E+00  0.163E+00  0.163E+00  0.163E+00
   9.916  0.492E+00  0.164E+00  0.164E+00  0.164E+00
   9.926  0.505E+00  0.168E+00  0.168E+00  0.168E+00
   9.936  0.530E+00  0.177E+00  0.177E+00  0.177E+00
   9.946  0.567E+00  0.189E+00  0.189E+00  0.189E+00
   9.956  0.612E+00  0.204E+00  0.204E+00  0.204E+00
   9.966  0.658E+00  0.219E+00  0.219E+00  0.219E+00
   9.976  0.696E+00  0.232E+00  0.232E+00  0.232E+00
   9.986  0.717E+00  0.239E+00  0.239E+00  0.239E+00
   9.996  0.711E+00  0.237E+00  0.237E+00  0.237E+00
  10.006  0.678E+00  0.226E+00  0.226E+00  0.226E+00
  10.016  0.618E+00  0.206E+00  0.206E+00  0.206E+00
  10.026  0.540E+00  0.180E+00  0.180E+00  0.180E+00
  10.036  0.456E+00  0.152E+00  0.152E+00  0.152E+00
  10.046  0.377E+00  0.126E+00  0.126E+00  0.126E+00
  10.056  0.316E+00  0.105E+00  0.105E+00  0.105E+00
  10.066  0.280E+00  0.932E-01  0.932E-01  0.932E-01
  10.076  0.270E+00  0.901E-01  0.901E-01  0.901E-01
  10.086  0.285E+00  0.949E-01  0.949E-01  0.949E-01
  10.096  0.314E+00  0.105E+00  0.105E+00  0.105E+00
  10.106  0.347E+00  0.116E+00  0.116E+00  0.116E+00
  10.116  0.373E+00  0.124E+00  0.124E+00  0.124E+00
  10.126  0.382E+00  0.127E+00  0.127E+00  0.127E+00
  10.136  0.369E+00  0.123E+00  0.123E+00  0.123E+00
  10.146  0.336E+00  0.112E+00  0.112E+00  0.112E+00
  10.156  0.288E+00  0.960E-01  0.960E-01  0.960E-01
  10.166  0.234E+00  0.779E-01  0.779E-01  0.779E-01
  10.176  0.182E+00  0.605E-01  0.605E-01  0.605E-01
  10.186  0.139E+00  0.464E-01  0.464E-01  0.464E-01
  10.196  0.111E+00  0.369E-01  0.369E-01  0.369E-01
  10.206  0.980E-01  0.327E-01  0.327E-01  0.327E-01
  10.216  0.100E+00  0.335E-01  0.335E-01  0.335E-01
  10.226  0.117E+00  0.390E-01  0.390E-01  0.390E-01
  10.236  0.148E+00  0.492E-01  0.492E-01  0.492E-01
  10.246  0.193E+00  0.645E-01  0.645E-01  0.645E-01
  10.256  0.256E+00  0.854E-01  0.854E-01  0.854E-01
  10.266  0.337E+00  0.112E+00  0.112E+00  0.112E+00
  10.276  0.435E+00  0.145E+00  0.145E+00  0.145E+00
  10.286  0.546E+00  0.182E+00  0.182E+00  0.182E+00
  10.296  0.662E+00  0.221E+00  0.221E+00  0.221E+00
  10.306  0.772E+00  0.257E+00  0.257E+00  0.257E+00
  10.316  0.862E+00  0.287E+00  0.287E+00  0.287E+00
  10.326  0.921E+00  0.307E+00  0.307E+00  0.307E+00
  10.336  0.943E+00  0.314E+00  0.314E+00  0.314E+00
  10.346  0.927E+00  0.309E+00  0.309E+00  0.309E+00
  10.356  0.879E+00  0.293E+00  0.293E+00  0.293E+00
  10.366  0.811E+00  0.270E+00  0.270E+00  0.270E+00
  10.376  0.735E+00  0.245E+00  0.245E+00  0.245E+00
  10.386  0.664E+00  0.221E+00  0.221E+00  0.221E+00
  10.396  0.606E+00  0.202E+00  0.202E+00  0.202E+00
  10.406  0.562E+00  0.187E+00  0.187E+00  0.187E+00
  10.416  0.531E+00  0.177E+00  0.177E+00  0.177E+00
  10.426  0.507E+00  0.169E+00  0.169E+00  0.169E+00
  10.436  0.485E+00  0.162E+00  0.162E+00  0.162E+00
  10.446  0.462E+00  0.154E+00  0.154E+00  0.154E+00
  10.456  0.436E+00  0.145E+00  0.145E+00  0.145E+00
  10.466  0.410E+00  0.137E+00  0.137E+00  0.137E+00
  10.476  0.386E+00  0.129E+00  0.129E+00  0.129E+00
  10.486  0.367E+00  0.122E+00  0.122E+00  0.122E+00
  10.496  0.357E+00  0.119E+00  0.119E+00  0.119E+00
  10.506  0.354E+00  0.118E+00  0.118E+00  0.118E+00
  10.516  0.360E+00  0.120E+00  0.120E+00  0.120E+00
  10.526  0.372E+00  0.124E+00  0.124E+00  0.124E+00
  10.536  0.386E+00  0.129E+00  0.129E+00  0.129E+00
  10.546  0.398E+00  0.133E+00  0.133E+00  0.133E+00
  10.556  0.405E+00  0.135E+00  0.135E+00  0.135E+00
  10.566  0.401E+00  0.134E+00  0.134E+00  0.134E+00
  10.576  0.386E+00  0.129E+00  0.129E+00  0.129E+00
  10.586  0.359E+00  0.120E+00  0.120E+00  0.120E+00
  10.596  0.323E+00  0.108E+00  0.108E+00  0.108E+00
  10.606  0.284E+00  0.947E-01  0.947E-01  0.947E-01
  10.616  0.249E+00  0.831E-01  0.831E-01  0.831E-01
  10.626  0.227E+00  0.755E-01  0.755E-01  0.755E-01
  10.636  0.221E+00  0.737E-01  0.737E-01  0.737E-01
  10.646  0.235E+00  0.784E-01  0.784E-01  0.784E-01
  10.656  0.267E+00  0.889E-01  0.889E-01  0.889E-01
  10.666  0.309E+00  0.103E+00  0.103E+00  0.103E+00
  10.676  0.353E+00  0.118E+00  0.118E+00  0.118E+00
  10.686  0.391E+00  0.130E+00  0.130E+00  0.130E+00
  10.696  0.413E+00  0.138E+00  0.138E+00  0.138E+00
  10.706  0.415E+00  0.138E+00  0.138E+00  0.138E+00
  10.716  0.396E+00  0.132E+00  0.132E+00  0.132E+00
  10.726  0.358E+00  0.119E+00  0.119E+00  0.119E+00
  10.736  0.307E+00  0.102E+00  0.102E+00  0.102E+00
  10.746  0.251E+00  0.837E-01  0.837E-01  0.837E-01
  10.756  0.198E+00  0.661E-01  0.661E-01  0.661E-01
  10.766  0.158E+00  0.526E-01  0.526E-01  0.526E-01
  10.776  0.138E+00  0.460E-01  0.460E-01  0.460E-01
  10.786  0.144E+00  0.481E-01  0.481E-01  0.481E-01
  10.796  0.179E+00  0.598E-01  0.598E-01  0.598E-01
  10.806  0.241E+00  0.803E-01  0.803E-01  0.803E-01
  10.816  0.321E+00  0.107E+00  0.107E+00  0.107E+00
  10.826  0.409E+00  0.136E+00  0.136E+00  0.136E+00
  10.836  0.488E+00  0.163E+00  0.163E+00  0.163E+00
  10.846  0.546E+00  0.182E+00  0.182E+00  0.182E+00
  10.856  0.571E+00  0.190E+00  0.190E+00  0.190E+00
  10.866  0.558E+00  0.186E+00  0.186E+00  0.186E+00
  10.876  0.509E+00  0.170E+00  0.170E+00  0.170E+00
  10.886  0.433E+00  0.144E+00  0.144E+00  0.144E+00
  10.896  0.341E+00  0.114E+00  0.114E+00  0.114E+00
  10.906  0.246E+00  0.819E-01  0.819E-01  0.819E-01
  10.916  0.159E+00  0.529E-01  0.529E-01  0.529E-01
  10.926  0.868E-01  0.289E-01  0.289E-01  0.289E-01
  10.936  0.337E-01  0.112E-01  0.112E-01  0.112E-01
  10.946 -0.805E-03 -0.268E-03 -0.268E-03 -0.268E-03
  10.956 -0.189E-01 -0.629E-02 -0.629E-02 -0.629E-02
  10.966 -0.235E-01 -0.783E-02 -0.783E-02 -0.783E-02
  10.976 -0.175E-01 -0.583E-02 -0.583E-02 -0.583E-02
  10.986 -0.274E-02 -0.913E-03 -0.913E-03 -0.913E-03
  10.996  0.197E-01  0.656E-02  0.656E-02  0.656E-02
  11.006  0.494E-01  0.165E-01  0.165E-01  0.165E-01
  11.016  0.862E-01  0.287E-01  0.287E-01  0.287E-01
  11.026  0.130E+00  0.432E-01  0.432E-01  0.432E-01
  11.036  0.178E+00  0.594E-01  0.594E-01  0.594E-01
  11.046  0.229E+00  0.765E-01  0.765E-01  0.765E-01
  11.056  0.280E+00  0.934E-01  0.934E-01  0.934E-01
  11.066  0.326E+00  0.109E+00  0.109E+00  0.109E+00
  11.076  0.363E+00  0.121E+00  0.121E+00  0.121E+00
  11.086  0.387E+00  0.129E+00  0.129E+00  0.129E+00
  11.096  0.397E+00  0.132E+00  0.132E+00  0.132E+00
  11.106  0.393E+00  0.131E+00  0.131E+00  0.131E+00
  11.116  0.378E+00  0.126E+00  0.126E+00  0.126E+00
  11.126  0.358E+00  0.119E+00  0.119E+00  0.119E+00
  11.136  0.338E+00  0.113E+00  0.113E+00  0.113E+00
  11.146  0.324E+00  0.108E+00  0.108E+00  0.108E+00
  11.156  0.321E+00  0.107E+00  0.107E+00  0.107E+00
  11.166  0.327E+00  0.109E+00  0.109E+00  0.109E+00
  11.176  0.340E+00  0.113E+00  0.113E+00  0.113E+00
  11.186  0.355E+00  0.118E+00  0.118E+00  0.118E+00
  11.196  0.364E+00  0.121E+00  0.121E+00  0.121E+00
  11.206  0.363E+00  0.121E+00  0.121E+00  0.121E+00
  11.216  0.346E+00  0.115E+00  0.115E+00  0.115E+00
  11.226  0.315E+00  0.105E+00  0.105E+00  0.105E+00
  11.236  0.272E+00  0.907E-01  0.907E-01  0.907E-01
  11.246  0.222E+00  0.738E-01  0.738E-01  0.738E-01
  11.256  0.170E+00  0.566E-01  0.566E-01  0.566E-01
  11.266  0.123E+00  0.411E-01  0.411E-01  0.411E-01
  11.276  0.868E-01  0.289E-01  0.289E-01  0.289E-01
  11.286  0.645E-01  0.215E-01  0.215E-01  0.215E-01
  11.296  0.589E-01  0.196E-01  0.196E-01  0.196E-01
  11.306  0.712E-01  0.237E-01  0.237E-01  0.237E-01
  11.316  0.101E+00  0.337E-01  0.337E-01  0.337E-01
  11.326  0.146E+00  0.488E-01  0.488E-01  0.488E-01
  11.336  0.203E+00  0.676E-01  0.676E-01  0.676E-01
  11.346  0.265E+00  0.883E-01  0.883E-01  0.883E-01
  11.356  0.326E+00  0.109E+00  0.109E+00  0.109E+00
  11.366  0.378E+00  0.126E+00  0.126E+00  0.126E+00
  11.376  0.415E+00  0.138E+00  0.138E+00  0.138E+00
  11.386  0.433E+00  0.144E+00  0.144E+00  0.144E+00
  11.396  0.431E+00  0.144E+00  0.144E+00  0.144E+00
  11.406  0.411E+00  0.137E+00  0.137E+00  0.137E+00
  11.416  0.379E+00  0.126E+00  0.126E+00  0.126E+00
  11.426  0.341E+00  0.114E+00  0.114E+00  0.114E+00
  11.436  0.307E+00  0.102E+00  0.102E+00  0.102E+00
  11.446  0.285E+00  0.950E-01  0.950E-01  0.950E-01
  11.456  0.279E+00  0.930E-01  0.930E-01  0.930E-01
  11.466  0.292E+00  0.973E-01  0.973E-01  0.973E-01
  11.476  0.323E+00  0.108E+00  0.108E+00  0.108E+00
  11.486  0.366E+00  0.122E+00  0.122E+00  0.122E+00
  11.496  0.416E+00  0.139E+00  0.139E+00  0.139E+00
  11.506  0.464E+00  0.155E+00  0.155E+00  0.155E+00
  11.516  0.504E+00  0.168E+00  0.168E+00  0.168E+00
  11.526  0.528E+00  0.176E+00  0.176E+00  0.176E+00
  11.536  0.534E+00  0.178E+00  0.178E+00  0.178E+00
  11.546  0.522E+00  0.174E+00  0.174E+00  0.174E+00
  11.556  0.494E+00  0.165E+00  0.165E+00  0.165E+00
  11.566  0.456E+00  0.152E+00  0.152E+00  0.152E+00
  11.576  0.414E+00  0.138E+00  0.138E+00  0.138E+00
  11.586  0.375E+00  0.125E+00  0.125E+00  0.125E+00
  11.596  0.343E+00  0.114E+00  0.114E+00  0.114E+00
  11.606  0.320E+00  0.107E+00  0.107E+00  0.107E+00
  11.616  0.305E+00  0.102E+00  0.102E+00  0.102E+00
  11.626  0.294E+00  0.980E-01  0.980E-01  0.980E-01
  11.636  0.284E+00  0.947E-01  0.947E-01  0.947E-01
  11.646  0.272E+00  0.907E-01  0.907E-01  0.907E-01
  11.656  0.259E+00  0.862E-01  0.862E-01  0.862E-01
  11.666  0.247E+00  0.822E-01  0.822E-01  0.822E-01
  11.676  0.242E+00  0.807E-01  0.807E-01  0.807E-01
  11.686  0.252E+00  0.842E-01  0.842E-01  0.842E-01
  11.696  0.284E+00  0.946E-01  0.946E-01  0.946E-01
  11.706  0.340E+00  0.113E+00  0.113E+00  0.113E+00
  11.716  0.418E+00  0.139E+00  0.139E+00  0.139E+00
  11.726  0.513E+00  0.171E+00  0.171E+00  0.171E+00
  11.736  0.611E+00  0.204E+00  0.204E+00  0.204E+00
  11.746  0.700E+00  0.233E+00  0.233E+00  0.233E+00
  11.756  0.765E+00  0.255E+00  0.255E+00  0.255E+00
  11.766  0.797E+00  0.266E+00  0.266E+00  0.266E+00
  11.776  0.792E+00  0.264E+00  0.264E+00  0.264E+00
  11.786  0.750E+00  0.250E+00  0.250E+00  0.250E+00
  11.796  0.681E+00  0.227E+00  0.227E+00  0.227E+00
  11.806  0.593E+00  0.198E+00  0.198E+00  0.198E+00
  11.816  0.500E+00  0.167E+00  0.167E+00  0.167E+00
  11.826  0.411E+00  0.137E+00  0.137E+00  0.137E+00
  11.836  0.332E+00  0.111E+00  0.111E+00  0.111E+00
  11.846  0.266E+00  0.888E-01  0.888E-01  0.888E-01
  11.856  0.215E+00  0.717E-01  0.717E-01  0.717E-01
  11.866  0.177E+00  0.591E-01  0.591E-01  0.591E-01
  11.876  0.151E+00  0.503E-01  0.503E-01  0.503E-01
  11.886  0.135E+00  0.451E-01  0.451E-01  0.451E-01
  11.896  0.131E+00  0.435E-01  0.435E-01  0.435E-01
  11.906  0.137E+00  0.458E-01  0.458E-01  0.458E-01
  11.916  0.156E+00  0.520E-01  0.520E-01  0.520E-01
  11.926  0.185E+00  0.618E-01  0.618E-01  0.618E-01
  11.936  0.222E+00  0.741E-01  0.741E-01  0.741E-01
  11.946  0.262E+00  0.872E-01  0.872E-01  0.872E-01
  11.956  0.297E+00  0.991E-01  0.991E-01  0.991E-01
  11.966  0.324E+00  0.108E+00  0.108E+00  0.108E+00
  11.976  0.336E+00  0.112E+00  0.112E+00  0.112E+00
  11.986  0.333E+00  0.111E+00  0.111E+00  0.111E+00
  11.996  0.315E+00  0.105E+00  0.105E+00  0.105E+00
  12.006  0.285E+00  0.950E-01  0.950E-01  0.950E-01
  12.016  0.248E+00  0.825E-01  0.825E-01  0.825E-01
  12.026  0.207E+00  0.689E-01  0.689E-01  0.689E-01
  12.036  0.166E+00  0.552E-01  0.552E-01  0.552E-01
  12.046  0.127E+00  0.423E-01  0.423E-01  0.423E-01
  12.056  0.913E-01  0.304E-01  0.304E-01  0.304E-01
  12.066  0.598E-01  0.199E-01  0.199E-01  0.199E-01
  12.076  0.329E-01  0.110E-01  0.110E-01  0.110E-01
  12.086  0.110E-01  0.368E-02  0.368E-02  0.368E-02
  12.096 -0.509E-02 -0.170E-02 -0.170E-02 -0.170E-02
  12.106 -0.144E-01 -0.481E-02 -0.481E-02 -0.481E-02
  12.116 -0.157E-01 -0.523E-02 -0.523E-02 -0.523E-02
  12.126 -0.737E-02 -0.246E-02 -0.246E-02 -0.246E-02
  12.136  0.121E-01  0.402E-02  0.402E-02  0.402E-02
  12.146  0.437E-01  0.146E-01  0.146E-01  0.146E-01
  12.156  0.877E-01  0.292E-01  0.292E-01  0.292E-01
  12.166  0.142E+00  0.475E-01  0.475E-01  0.475E-01
  12.176  0.205E+00  0.682E-01  0.682E-01  0.682E-01
  12.186  0.268E+00  0.894E-01  0.894E-01  0.894E-01
  12.196  0.326E+00  0.109E+00  0.109E+00  0.109E+00
  12.206  0.370E+00  0.123E+00  0.123E+00  0.123E+00
  12.216  0.394E+00  0.131E+00  0.131E+00  0.131E+00
  12.226  0.394E+00  0.131E+00  0.131E+00  0.131E+00
  12.236  0.369E+00  0.123E+00  0.123E+00  0.123E+00
  12.246  0.322E+00  0.107E+00  0.107E+00  0.107E+00
  12.256  0.261E+00  0.871E-01  0.871E-01  0.871E-01
  12.266  0.194E+00  0.647E-01  0.647E-01  0.647E-01
  12.276  0.129E+00  0.430E-01  0.430E-01  0.430E-01
  12.286  0.730E-01  0.243E-01  0.243E-01  0.243E-01
  12.296  0.310E-01  0.103E-01  0.103E-01  0.103E-01
  12.306  0.480E-02  0.160E-02  0.160E-02  0.160E-02
  12.316 -0.593E-02 -0.198E-02 -0.198E-02 -0.198E-02
  12.326 -0.316E-02 -0.105E-02 -0.105E-02 -0.105E-02
  12.336  0.103E-01  0.345E-02  0.345E-02  0.345E-02
  12.346  0.317E-01  0.106E-01  0.106E-01  0.106E-01
  12.356  0.585E-01  0.195E-01  0.195E-01  0.195E-01
  12.366  0.889E-01  0.296E-01  0.296E-01  0.296E-01
  12.376  0.122E+00  0.406E-01  0.406E-01  0.406E-01
  12.386  0.156E+00  0.521E-01  0.521E-01  0.521E-01
  12.396  0.192E+00  0.640E-01  0.640E-01  0.640E-01
  12.406  0.228E+00  0.760E-01  0.760E-01  0.760E-01
  12.416  0.262E+00  0.874E-01  0.874E-01  0.874E-01
  12.426  0.293E+00  0.976E-01  0.976E-01  0.976E-01
  12.436  0.317E+00  0.106E+00  0.106E+00  0.106E+00
  12.446  0.333E+00  0.111E+00  0.111E+00  0.111E+00
  12.456  0.340E+00  0.113E+00  0.113E+00  0.113E+00
  12.466  0.335E+00  0.112E+00  0.112E+00  0.112E+00
  12.476  0.322E+00  0.107E+00  0.107E+00  0.107E+00
  12.486  0.301E+00  0.100E+00  0.100E+00  0.100E+00
  12.496  0.276E+00  0.919E-01  0.919E-01  0.919E-01
  12.506  0.248E+00  0.826E-01  0.826E-01  0.826E-01
  12.516  0.220E+00  0.733E-01  0.733E-01  0.733E-01
  12.526  0.194E+00  0.646E-01  0.646E-01  0.646E-01
  12.536  0.171E+00  0.569E-01  0.569E-01  0.569E-01
  12.546  0.151E+00  0.504E-01  0.504E-01  0.504E-01
  12.556  0.135E+00  0.450E-01  0.450E-01  0.450E-01
  12.566  0.121E+00  0.403E-01  0.403E-01  0.403E-01
  12.576  0.108E+00  0.359E-01  0.359E-01  0.359E-01
  12.586  0.946E-01  0.315E-01  0.315E-01  0.315E-01
  12.596  0.804E-01  0.268E-01  0.268E-01  0.268E-01
  12.606  0.648E-01  0.216E-01  0.216E-01  0.216E-01
  12.616  0.480E-01  0.160E-01  0.160E-01  0.160E-01
  12.626  0.310E-01  0.103E-01  0.103E-01  0.103E-01
  12.636  0.149E-01  0.496E-02  0.496E-02  0.496E-02
  12.646  0.697E-03  0.232E-03  0.232E-03  0.232E-03
  12.656 -0.104E-01 -0.347E-02 -0.347E-02 -0.347E-02
  12.666 -0.174E-01 -0.579E-02 -0.579E-02 -0.579E-02
  12.676 -0.191E-01 -0.637E-02 -0.637E-02 -0.637E-02
  12.686 -0.144E-01 -0.479E-02 -0.479E-02 -0.479E-02
  12.696 -0.182E-02 -0.606E-03 -0.606E-03 -0.606E-03
  12.706  0.196E-01  0.655E-02  0.655E-02  0.655E-02
  12.716  0.505E-01  0.168E-01  0.168E-01  0.168E-01
  12.726  0.905E-01  0.302E-01  0.302E-01  0.302E-01
  12.736  0.138E+00  0.460E-01  0.460E-01  0.460E-01
  12.746  0.190E+00  0.634E-01  0.634E-01  0.634E-01
  12.756  0.244E+00  0.814E-01  0.814E-01  0.814E-01
  12.766  0.297E+00  0.989E-01  0.989E-01  0.989E-01
  12.776  0.345E+00  0.115E+00  0.115E+00  0.115E+00
  12.786  0.385E+00  0.128E+00  0.128E+00  0.128E+00
  12.796  0.416E+00  0.139E+00  0.139E+00  0.139E+00
  12.806  0.436E+00  0.145E+00  0.145E+00  0.145E+00
  12.816  0.443E+00  0.148E+00  0.148E+00  0.148E+00
  12.826  0.436E+00  0.145E+00  0.145E+00  0.145E+00
  12.836  0.416E+00  0.139E+00  0.139E+00  0.139E+00
  12.846  0.385E+00  0.128E+00  0.128E+00  0.128E+00
  12.856  0.346E+00  0.115E+00  0.115E+00  0.115E+00
  12.866  0.305E+00  0.102E+00  0.102E+00  0.102E+00
  12.876  0.265E+00  0.884E-01  0.884E-01  0.884E-01
  12.886  0.233E+00  0.777E-01  0.777E-01  0.777E-01
  12.896  0.211E+00  0.705E-01  0.705E-01  0.705E-01
  12.906  0.202E+00  0.672E-01  0.672E-01  0.672E-01
  12.916  0.203E+00  0.676E-01  0.676E-01  0.676E-01
  12.926  0.212E+00  0.706E-01  0.706E-01  0.706E-01
  12.936  0.225E+00  0.749E-01  0.749E-01  0.749E-01
  12.946  0.237E+00  0.789E-01  0.789E-01  0.789E-01
  12.956  0.244E+00  0.812E-01  0.812E-01  0.812E-01
  12.966  0.242E+00  0.806E-01  0.806E-01  0.806E-01
  12.976  0.229E+00  0.764E-01  0.764E-01  0.764E-01
  12.986  0.206E+00  0.685E-01  0.685E-01  0.685E-01
  12.996  0.173E+00  0.575E-01  0.575E-01  0.575E-01
  13.006  0.134E+00  0.445E-01  0.445E-01  0.445E-01
  13.016  0.925E-01  0.308E-01  0.308E-01  0.308E-01
  13.026  0.538E-01  0.179E-01  0.179E-01  0.179E-01
  13.036  0.210E-01  0.700E-02  0.700E-02  0.700E-02
  13.046 -0.292E-02 -0.972E-03 -0.972E-03 -0.972E-03
  13.056 -0.161E-01 -0.538E-02 -0.538E-02 -0.538E-02
  13.066 -0.176E-01 -0.586E-02 -0.586E-02 -0.586E-02
  13.076 -0.682E-02 -0.227E-02 -0.227E-02 -0.227E-02
  13.086  0.163E-01  0.542E-02  0.542E-02  0.542E-02
  13.096  0.515E-01  0.172E-01  0.172E-01  0.172E-01
  13.106  0.986E-01  0.329E-01  0.329E-01  0.329E-01
  13.116  0.157E+00  0.522E-01  0.522E-01  0.522E-01
  13.126  0.225E+00  0.749E-01  0.749E-01  0.749E-01
  13.136  0.300E+00  0.100E+00  0.100E+00  0.100E+00
  13.146  0.380E+00  0.127E+00  0.127E+00  0.127E+00
  13.156  0.459E+00  0.153E+00  0.153E+00  0.153E+00
  13.166  0.532E+00  0.177E+00  0.177E+00  0.177E+00
  13.176  0.592E+00  0.197E+00  0.197E+00  0.197E+00
  13.186  0.633E+00  0.211E+00  0.211E+00  0.211E+00
  13.196  0.652E+00  0.217E+00  0.217E+00  0.217E+00
  13.206  0.649E+00  0.216E+00  0.216E+00  0.216E+00
  13.216  0.626E+00  0.209E+00  0.209E+00  0.209E+00
  13.226  0.590E+00  0.197E+00  0.197E+00  0.197E+00
  13.236  0.546E+00  0.182E+00  0.182E+00  0.182E+00
  13.246  0.500E+00  0.167E+00  0.167E+00  0.167E+00
  13.256  0.456E+00  0.152E+00  0.152E+00  0.152E+00
  13.266  0.416E+00  0.139E+00  0.139E+00  0.139E+00
  13.276  0.378E+00  0.126E+00  0.126E+00  0.126E+00
  13.286  0.342E+00  0.114E+00  0.114E+00  0.114E+00
  13.296  0.306E+00  0.102E+00  0.102E+00  0.102E+00
  13.306  0.270E+00  0.900E-01  0.900E-01  0.900E-01
  13.316  0.235E+00  0.782E-01  0.782E-01  0.782E-01
  13.326  0.200E+00  0.668E-01  0.668E-01  0.668E-01
  13.336  0.168E+00  0.561E-01  0.561E-01  0.561E-01
  13.346  0.138E+00  0.461E-01  0.461E-01  0.461E-01
  13.356  0.110E+00  0.368E-01  0.368E-01  0.368E-01
  13.366  0.844E-01  0.281E-01  0.281E-01  0.281E-01
  13.376  0.607E-01  0.202E-01  0.202E-01  0.202E-01
  13.386  0.398E-01  0.133E-01  0.133E-01  0.133E-01
  13.396  0.224E-01  0.746E-02  0.746E-02  0.746E-02
  13.406  0.883E-02  0.294E-02  0.294E-02  0.294E-02
  13.416 -0.678E-03 -0.226E-03 -0.226E-03 -0.226E-03
  13.426 -0.646E-02 -0.215E-02 -0.215E-02 -0.215E-02
  13.436 -0.919E-02 -0.306E-02 -0.306E-02 -0.306E-02
  13.446 -0.973E-02 -0.324E-02 -0.324E-02 -0.324E-02
  13.456 -0.888E-02 -0.296E-02 -0.296E-02 -0.296E-02
  13.466 -0.724E-02 -0.241E-02 -0.241E-02 -0.241E-02
  13.476 -0.514E-02 -0.171E-02 -0.171E-02 -0.171E-02
  13.486 -0.269E-02 -0.896E-03 -0.896E-03 -0.896E-03
  13.496  0.204E-03  0.680E-04  0.680E-04  0.680E-04
  13.506  0.365E-02  0.122E-02  0.122E-02  0.122E-02
  13.516  0.770E-02  0.257E-02  0.257E-02  0.257E-02
  13.526  0.122E-01  0.407E-02  0.407E-02  0.407E-02
  13.536  0.169E-01  0.564E-02  0.564E-02  0.564E-02
  13.546  0.213E-01  0.710E-02  0.710E-02  0.710E-02
  13.556  0.248E-01  0.828E-02  0.828E-02  0.828E-02
  13.566  0.271E-01  0.904E-02  0.904E-02  0.904E-02
  13.576  0.279E-01  0.931E-02  0.931E-02  0.931E-02
  13.586  0.275E-01  0.917E-02  0.917E-02  0.917E-02
  13.596  0.265E-01  0.885E-02  0.885E-02  0.885E-02
  13.606  0.260E-01  0.867E-02  0.867E-02  0.867E-02
  13.616  0.271E-01  0.904E-02  0.904E-02  0.904E-02
  13.626  0.308E-01  0.103E-01  0.103E-01  0.103E-01
  13.636  0.375E-01  0.125E-01  0.125E-01  0.125E-01
  13.646  0.468E-01  0.156E-01  0.156E-01  0.156E-01
  13.656  0.577E-01  0.192E-01  0.192E-01  0.192E-01
  13.666  0.684E-01  0.228E-01  0.228E-01  0.228E-01
  13.676  0.770E-01  0.257E-01  0.257E-01  0.257E-01
  13.686  0.822E-01  0.274E-01  0.274E-01  0.274E-01
  13.696  0.834E-01  0.278E-01  0.278E-01  0.278E-01
  13.706  0.814E-01  0.271E-01  0.271E-01  0.271E-01
  13.716  0.779E-01  0.260E-01  0.260E-01  0.260E-01
  13.726  0.751E-01  0.250E-01  0.250E-01  0.250E-01
  13.736  0.748E-01  0.249E-01  0.249E-01  0.249E-01
  13.746  0.780E-01  0.260E-01  0.260E-01  0.260E-01
  13.756  0.844E-01  0.281E-01  0.281E-01  0.281E-01
  13.766  0.921E-01  0.307E-01  0.307E-01  0.307E-01
  13.776  0.988E-01  0.329E-01  0.329E-01  0.329E-01
  13.786  0.102E+00  0.340E-01  0.340E-01  0.340E-01
  13.796  0.995E-01  0.332E-01  0.332E-01  0.332E-01
  13.806  0.912E-01  0.304E-01  0.304E-01  0.304E-01
  13.816  0.776E-01  0.259E-01  0.259E-01  0.259E-01
  13.826  0.607E-01  0.202E-01  0.202E-01  0.202E-01
  13.836  0.426E-01  0.142E-01  0.142E-01  0.142E-01
  13.846  0.255E-01  0.850E-02  0.850E-02  0.850E-02
  13.856  0.111E-01  0.370E-02  0.370E-02  0.370E-02
  13.866  0.298E-03  0.993E-04  0.993E-04  0.993E-04
  13.876 -0.658E-02 -0.219E-02 -0.219E-02 -0.219E-02
  13.886 -0.957E-02 -0.319E-02 -0.319E-02 -0.319E-02
  13.896 -0.881E-02 -0.294E-02 -0.294E-02 -0.294E-02
  13.906 -0.437E-02 -0.146E-02 -0.146E-02 -0.146E-02
  13.916  0.371E-02  0.124E-02  0.124E-02  0.124E-02
  13.926  0.153E-01  0.509E-02  0.509E-02  0.509E-02
  13.936  0.297E-01  0.991E-02  0.991E-02  0.991E-02
  13.946  0.460E-01  0.153E-01  0.153E-01  0.153E-01
  13.956  0.623E-01  0.208E-01  0.208E-01  0.208E-01
  13.966  0.765E-01  0.255E-01  0.255E-01  0.255E-01
  13.976  0.865E-01  0.288E-01  0.288E-01  0.288E-01
  13.986  0.906E-01  0.302E-01  0.302E-01  0.302E-01
  13.996  0.882E-01  0.294E-01  0.294E-01  0.294E-01
  14.006  0.798E-01  0.266E-01  0.266E-01  0.266E-01
  14.016  0.666E-01  0.222E-01  0.222E-01  0.222E-01
  14.026  0.508E-01  0.169E-01  0.169E-01  0.169E-01
  14.036  0.346E-01  0.115E-01  0.115E-01  0.115E-01
  14.046  0.199E-01  0.662E-02  0.662E-02  0.662E-02
  14.056  0.774E-02  0.258E-02  0.258E-02  0.258E-02
  14.066 -0.116E-02 -0.387E-03 -0.387E-03 -0.387E-03
  14.076 -0.684E-02 -0.228E-02 -0.228E-02 -0.228E-02
  14.086 -0.959E-02 -0.320E-02 -0.320E-02 -0.320E-02
  14.096 -0.974E-02 -0.325E-02 -0.325E-02 -0.325E-02
  14.106 -0.754E-02 -0.251E-02 -0.251E-02 -0.251E-02
  14.116 -0.306E-02 -0.102E-02 -0.102E-02 -0.102E-02
  14.126  0.372E-02  0.124E-02  0.124E-02  0.124E-02
  14.136  0.129E-01  0.429E-02  0.429E-02  0.429E-02
  14.146  0.244E-01  0.814E-02  0.814E-02  0.814E-02
  14.156  0.384E-01  0.128E-01  0.128E-01  0.128E-01
  14.166  0.550E-01  0.183E-01  0.183E-01  0.183E-01
  14.176  0.745E-01  0.248E-01  0.248E-01  0.248E-01
  14.186  0.971E-01  0.324E-01  0.324E-01  0.324E-01
  14.196  0.123E+00  0.409E-01  0.409E-01  0.409E-01
  14.206  0.150E+00  0.500E-01  0.500E-01  0.500E-01
  14.216  0.178E+00  0.593E-01  0.593E-01  0.593E-01
  14.226  0.203E+00  0.676E-01  0.676E-01  0.676E-01
  14.236  0.221E+00  0.737E-01  0.737E-01  0.737E-01
  14.246  0.230E+00  0.765E-01  0.765E-01  0.765E-01
  14.256  0.226E+00  0.752E-01  0.752E-01  0.752E-01
  14.266  0.209E+00  0.696E-01  0.696E-01  0.696E-01
  14.276  0.181E+00  0.603E-01  0.603E-01  0.603E-01
  14.286  0.145E+00  0.484E-01  0.484E-01  0.484E-01
  14.296  0.107E+00  0.355E-01  0.355E-01  0.355E-01
  14.306  0.695E-01  0.232E-01  0.232E-01  0.232E-01
  14.316  0.376E-01  0.125E-01  0.125E-01  0.125E-01
  14.326  0.126E-01  0.421E-02  0.421E-02  0.421E-02
  14.336 -0.487E-02 -0.162E-02 -0.162E-02 -0.162E-02
  14.346 -0.157E-01 -0.524E-02 -0.524E-02 -0.524E-02
  14.356 -0.212E-01 -0.706E-02 -0.706E-02 -0.706E-02
  14.366 -0.224E-01 -0.746E-02 -0.746E-02 -0.746E-02
  14.376 -0.198E-01 -0.659E-02 -0.659E-02 -0.659E-02
  14.386 -0.131E-01 -0.435E-02 -0.435E-02 -0.435E-02
  14.396 -0.140E-02 -0.465E-03 -0.465E-03 -0.465E-03
  14.406  0.161E-01  0.537E-02  0.537E-02  0.537E-02
  14.416  0.398E-01  0.133E-01  0.133E-01  0.133E-01
  14.426  0.689E-01  0.230E-01  0.230E-01  0.230E-01
  14.436  0.101E+00  0.337E-01  0.337E-01  0.337E-01
  14.446  0.133E+00  0.443E-01  0.443E-01  0.443E-01
  14.456  0.160E+00  0.534E-01  0.534E-01  0.534E-01
  14.466  0.179E+00  0.598E-01  0.598E-01  0.598E-01
  14.476  0.188E+00  0.625E-01  0.625E-01  0.625E-01
  14.486  0.185E+00  0.617E-01  0.617E-01  0.617E-01
  14.496  0.174E+00  0.578E-01  0.578E-01  0.578E-01
  14.506  0.157E+00  0.522E-01  0.522E-01  0.522E-01
  14.516  0.139E+00  0.463E-01  0.463E-01  0.463E-01
  14.526  0.124E+00  0.412E-01  0.412E-01  0.412E-01
  14.536  0.113E+00  0.377E-01  0.377E-01  0.377E-01
  14.546  0.108E+00  0.359E-01  0.359E-01  0.359E-01
  14.556  0.106E+00  0.353E-01  0.353E-01  0.353E-01
  14.566  0.106E+00  0.354E-01  0.354E-01  0.354E-01
  14.576  0.106E+00  0.354E-01  0.354E-01  0.354E-01
  14.586  0.104E+00  0.348E-01  0.348E-01  0.348E-01
  14.596  0.100E+00  0.333E-01  0.333E-01  0.333E-01
  14.606  0.931E-01  0.310E-01  0.310E-01  0.310E-01
  14.616  0.842E-01  0.281E-01  0.281E-01  0.281E-01
  14.626  0.743E-01  0.248E-01  0.248E-01  0.248E-01
  14.636  0.646E-01  0.215E-01  0.215E-01  0.215E-01
  14.646  0.566E-01  0.189E-01  0.189E-01  0.189E-01
  14.656  0.517E-01  0.172E-01  0.172E-01  0.172E-01
  14.666  0.514E-01  0.171E-01  0.171E-01  0.171E-01
  14.676  0.563E-01  0.188E-01  0.188E-01  0.188E-01
  14.686  0.664E-01  0.221E-01  0.221E-01  0.221E-01
  14.696  0.807E-01  0.269E-01  0.269E-01  0.269E-01
  14.706  0.974E-01  0.325E-01  0.325E-01  0.325E-01
  14.716  0.114E+00  0.381E-01  0.381E-01  0.381E-01
  14.726  0.129E+00  0.430E-01  0.430E-01  0.430E-01
  14.736  0.141E+00  0.469E-01  0.469E-01  0.469E-01
  14.746  0.148E+00  0.495E-01  0.495E-01  0.495E-01
  14.756  0.152E+00  0.507E-01  0.507E-01  0.507E-01
  14.766  0.152E+00  0.506E-01  0.506E-01  0.506E-01
  14.776  0.148E+00  0.493E-01  0.493E-01  0.493E-01
  14.786  0.140E+00  0.468E-01  0.468E-01  0.468E-01
  14.796  0.129E+00  0.430E-01  0.430E-01  0.430E-01
  14.806  0.114E+00  0.380E-01  0.380E-01  0.380E-01
  14.816  0.960E-01  0.320E-01  0.320E-01  0.320E-01
  14.826  0.760E-01  0.253E-01  0.253E-01  0.253E-01
  14.836  0.557E-01  0.186E-01  0.186E-01  0.186E-01
  14.846  0.368E-01  0.123E-01  0.123E-01  0.123E-01
  14.856  0.208E-01  0.693E-02  0.693E-02  0.693E-02
  14.866  0.852E-02  0.284E-02  0.284E-02  0.284E-02
  14.876  0.200E-03  0.666E-04  0.666E-04  0.666E-04
  14.886 -0.456E-02 -0.152E-02 -0.152E-02 -0.152E-02
  14.896 -0.653E-02 -0.218E-02 -0.218E-02 -0.218E-02
  14.906 -0.664E-02 -0.221E-02 -0.221E-02 -0.221E-02
  14.916 -0.571E-02 -0.190E-02 -0.190E-02 -0.190E-02
  14.926 -0.440E-02 -0.147E-02 -0.147E-02 -0.147E-02
  14.936 -0.310E-02 -0.103E-02 -0.103E-02 -0.103E-02
  14.946 -0.204E-02 -0.679E-03 -0.679E-03 -0.679E-03
  14.956 -0.125E-02 -0.417E-03 -0.417E-03 -0.417E-03
  14.966 -0.722E-03 -0.241E-03 -0.241E-03 -0.241E-03
  14.976 -0.394E-03 -0.131E-03 -0.131E-03 -0.131E-03
  14.986 -0.203E-03 -0.677E-04 -0.677E-04 -0.677E-04
  14.996 -0.994E-04 -0.331E-04 -0.331E-04 -0.331E-04
  15.006 -0.462E-04 -0.154E-04 -0.154E-04 -0.154E-04
  15.016 -0.204E-04 -0.681E-05 -0.681E-05 -0.681E-05
  15.026 -0.859E-05 -0.286E-05 -0.286E-05 -0.286E-05
  15.036 -0.344E-05 -0.115E-05 -0.115E-05 -0.115E-05
  15.046 -0.131E-05 -0.437E-06 -0.437E-06 -0.437E-06
  15.056 -0.477E-06 -0.159E-06 -0.159E-06 -0.159E-06
  15.066 -0.166E-06 -0.552E-07 -0.552E-07 -0.552E-07
  15.076 -0.549E-07 -0.183E-07 -0.183E-07 -0.183E-07
  15.086 -0.173E-07 -0.578E-08 -0.578E-08 -0.578E-08
  15.096 -0.523E-08 -0.174E-08 -0.174E-08 -0.174E-08
  15.106 -0.151E-08 -0.503E-09 -0.503E-09 -0.503E-09
  15.116 -0.415E-09 -0.138E-09 -0.138E-09 -0.138E-09
  15.126 -0.109E-09 -0.364E-10 -0.364E-10 -0.364E-10
  15.136 -0.275E-10 -0.915E-11 -0.915E-11 -0.915E-11
  15.146 -0.659E-11 -0.220E-11 -0.220E-11 -0.220E-11
  15.156  0.000E+00  0.000E+00  0.000E+00  0.000E+00
  15.166  0.000E+00  0.000E+00  0.000E+00  0.000E+00
  15.176  0.000E+00  0.000E+00  0.000E+00  0.000E+00
  15.186  0.000E+00  0.000E+00  0.000E+00  0.000E+00
  15.196  0.000E+00  0.000E+00  0.000E+00  0.000E+00
  15.206  0.000E+00  0.000E+00  0.000E+00  0.000E+00
  15.216  0.000E+00  0.000E+00  0.000E+00  0.000E+00
  15.226  0.000E+00  0.000E+00  0.000E+00  0.000E+00
  15.236  0.000E+00  0.000E+00  0.000E+00  0.000E+00
  15.246  0.000E+00  0.000E+00  0.000E+00  0.000E+00
  15.256  0.000E+00  0.000E+00  0.000E+00  0.000E+00
  15.266  0.000E+00  0.000E+00  0.000E+00  0.000E+00
  15.276  0.000E+00  0.000E+00  0.000E+00  0.000E+00
  15.286  0.000E+00  0.000E+00  0.000E+00  0.000E+00
  15.296  0.000E+00  0.000E+00  0.000E+00  0.000E+00
  15.306  0.000E+00  0.000E+00  0.000E+00  0.000E+00
  15.316 -0.292E-11 -0.973E-12 -0.973E-12 -0.973E-12
  15.326 -0.121E-10 -0.402E-11 -0.402E-11 -0.402E-11
  15.336 -0.477E-10 -0.159E-10 -0.159E-10 -0.159E-10
  15.346 -0.180E-09 -0.600E-10 -0.600E-10 -0.600E-10
  15.356 -0.650E-09 -0.217E-09 -0.217E-09 -0.217E-09
  15.366 -0.224E-08 -0.746E-09 -0.746E-09 -0.746E-09
  15.376 -0.737E-08 -0.246E-08 -0.246E-08 -0.246E-08
  15.386 -0.232E-07 -0.772E-08 -0.772E-08 -0.772E-08
  15.396 -0.694E-07 -0.231E-07 -0.231E-07 -0.231E-07
  15.406 -0.199E-06 -0.662E-07 -0.662E-07 -0.662E-07
  15.416 -0.542E-06 -0.181E-06 -0.181E-06 -0.181E-06
  15.426 -0.141E-05 -0.470E-06 -0.470E-06 -0.470E-06
  15.436 -0.349E-05 -0.116E-05 -0.116E-05 -0.116E-05
  15.446 -0.825E-05 -0.275E-05 -0.275E-05 -0.275E-05
  15.456 -0.185E-04 -0.617E-05 -0.617E-05 -0.617E-05
  15.466 -0.395E-04 -0.132E-04 -0.132E-04 -0.132E-04
  15.476 -0.800E-04 -0.267E-04 -0.267E-04 -0.267E-04
  15.486 -0.154E-03 -0.512E-04 -0.512E-04 -0.512E-04
  15.496 -0.279E-03 -0.929E-04 -0.929E-04 -0.929E-04
  15.506 -0.477E-03 -0.159E-03 -0.159E-03 -0.159E-03
  15.516 -0.766E-03 -0.255E-03 -0.255E-03 -0.255E-03
  15.526 -0.115E-02 -0.382E-03 -0.382E-03 -0.382E-03
  15.536 -0.159E-02 -0.529E-03 -0.529E-03 -0.529E-03
  15.546 -0.199E-02 -0.665E-03 -0.665E-03 -0.665E-03
  15.556 -0.219E-02 -0.730E-03 -0.730E-03 -0.730E-03
  15.566 -0.192E-02 -0.639E-03 -0.639E-03 -0.639E-03
  15.576 -0.840E-03 -0.280E-03 -0.280E-03 -0.280E-03
  15.586  0.138E-02  0.460E-03  0.460E-03  0.460E-03
  15.596  0.500E-02  0.167E-02  0.167E-02  0.167E-02
  15.606  0.101E-01  0.336E-02  0.336E-02  0.336E-02
  15.616  0.164E-01  0.546E-02  0.546E-02  0.546E-02
  15.626  0.233E-01  0.778E-02  0.778E-02  0.778E-02
  15.636  0.301E-01  0.100E-01  0.100E-01  0.100E-01
  15.646  0.357E-01  0.119E-01  0.119E-01  0.119E-01
  15.656  0.392E-01  0.131E-01  0.131E-01  0.131E-01
  15.666  0.400E-01  0.133E-01  0.133E-01  0.133E-01
  15.676  0.380E-01  0.127E-01  0.127E-01  0.127E-01
  15.686  0.335E-01  0.112E-01  0.112E-01  0.112E-01
  15.696  0.272E-01  0.908E-02  0.908E-02  0.908E-02
  15.706  0.203E-01  0.676E-02  0.676E-02  0.676E-02
  15.716  0.135E-01  0.450E-02  0.450E-02  0.450E-02
  15.726  0.769E-02  0.256E-02  0.256E-02  0.256E-02
  15.736  0.324E-02  0.108E-02  0.108E-02  0.108E-02
  15.746  0.252E-03  0.841E-04  0.841E-04  0.841E-04
  15.756 -0.143E-02 -0.477E-03 -0.477E-03 -0.477E-03
  15.766 -0.211E-02 -0.705E-03 -0.705E-03 -0.705E-03
  15.776 -0.215E-02 -0.715E-03 -0.715E-03 -0.715E-03
  15.786 -0.183E-02 -0.610E-03 -0.610E-03 -0.610E-03
  15.796 -0.139E-02 -0.464E-03 -0.464E-03 -0.464E-03
  15.806 -0.971E-03 -0.324E-03 -0.324E-03 -0.324E-03
  15.816 -0.628E-03 -0.209E-03 -0.209E-03 -0.209E-03
  15.826 -0.380E-03 -0.127E-03 -0.127E-03 -0.127E-03
  15.836 -0.216E-03 -0.721E-04 -0.721E-04 -0.721E-04
  15.846 -0.116E-03 -0.388E-04 -0.388E-04 -0.388E-04
  15.856 -0.592E-04 -0.197E-04 -0.197E-04 -0.197E-04
  15.866 -0.286E-04 -0.952E-05 -0.952E-05 -0.952E-05
  15.876 -0.131E-04 -0.436E-05 -0.436E-05 -0.436E-05
