# E (eV)  dos(E)    pdos(E)
  -6.084 -0.890E-05 -0.886E-05
  -6.074 -0.186E-04 -0.186E-04
  -6.064 -0.370E-04 -0.369E-04
  -6.054 -0.698E-04 -0.695E-04
  -6.044 -0.124E-03 -0.124E-03
  -6.034 -0.209E-03 -0.208E-03
  -6.024 -0.330E-03 -0.329E-03
  -6.014 -0.487E-03 -0.485E-03
  -6.004 -0.669E-03 -0.666E-03
  -5.994 -0.842E-03 -0.839E-03
  -5.984 -0.957E-03 -0.953E-03
  -5.974 -0.943E-03 -0.939E-03
  -5.964 -0.733E-03 -0.730E-03
  -5.954 -0.287E-03 -0.285E-03
  -5.944  0.383E-03  0.382E-03
  -5.934  0.119E-02  0.119E-02
  -5.924  0.201E-02  0.200E-02
  -5.914  0.273E-02  0.272E-02
  -5.904  0.337E-02  0.336E-02
  -5.894  0.427E-02  0.426E-02
  -5.884  0.615E-02  0.613E-02
  -5.874  0.101E-01  0.101E-01
  -5.864  0.176E-01  0.175E-01
  -5.854  0.299E-01  0.298E-01
  -5.844  0.477E-01  0.476E-01
  -5.834  0.710E-01  0.707E-01
  -5.824  0.980E-01  0.977E-01
  -5.814  0.126E+00  0.126E+00
  -5.804  0.152E+00  0.151E+00
  -5.794  0.171E+00  0.170E+00
  -5.784  0.180E+00  0.179E+00
  -5.774  0.177E+00  0.177E+00
  -5.764  0.164E+00  0.163E+00
  -5.754  0.142E+00  0.141E+00
  -5.744  0.115E+00  0.114E+00
  -5.734  0.880E-01  0.877E-01
  -5.724  0.666E-01  0.663E-01
  -5.714  0.541E-01  0.539E-01
  -5.704  0.526E-01  0.523E-01
  -5.694  0.614E-01  0.612E-01
  -5.684  0.782E-01  0.779E-01
  -5.674  0.992E-01  0.988E-01
  -5.664  0.120E+00  0.120E+00
  -5.654  0.139E+00  0.138E+00
  -5.644  0.154E+00  0.154E+00
  -5.634  0.169E+00  0.168E+00
  -5.624  0.186E+00  0.185E+00
  -5.614  0.210E+00  0.209E+00
  -5.604  0.244E+00  0.243E+00
  -5.594  0.287E+00  0.286E+00
  -5.584  0.335E+00  0.334E+00
  -5.574  0.380E+00  0.379E+00
  -5.564  0.414E+00  0.413E+00
  -5.554  0.429E+00  0.427E+00
  -5.544  0.419E+00  0.417E+00
  -5.534  0.385E+00  0.383E+00
  -5.524  0.330E+00  0.328E+00
  -5.514  0.262E+00  0.261E+00
  -5.504  0.192E+00  0.191E+00
  -5.494  0.128E+00  0.127E+00
  -5.484  0.752E-01  0.749E-01
  -5.474  0.384E-01  0.383E-01
  -5.464  0.174E-01  0.174E-01
  -5.454  0.988E-02  0.984E-02
  -5.444  0.121E-01  0.120E-01
  -5.434  0.205E-01  0.205E-01
  -5.424  0.330E-01  0.329E-01
  -5.414  0.494E-01  0.492E-01
  -5.404  0.718E-01  0.715E-01
  -5.394  0.104E+00  0.104E+00
  -5.384  0.150E+00  0.150E+00
  -5.374  0.212E+00  0.212E+00
  -5.364  0.290E+00  0.289E+00
  -5.354  0.377E+00  0.376E+00
  -5.344  0.465E+00  0.463E+00
  -5.334  0.542E+00  0.540E+00
  -5.324  0.595E+00  0.592E+00
  -5.314  0.615E+00  0.613E+00
  -5.304  0.599E+00  0.596E+00
  -5.294  0.548E+00  0.545E+00
  -5.284  0.471E+00  0.469E+00
  -5.274  0.383E+00  0.381E+00
  -5.264  0.297E+00  0.296E+00
  -5.254  0.229E+00  0.228E+00
  -5.244  0.186E+00  0.185E+00
  -5.234  0.172E+00  0.172E+00
  -5.224  0.184E+00  0.184E+00
  -5.214  0.214E+00  0.213E+00
  -5.204  0.251E+00  0.249E+00
  -5.194  0.285E+00  0.283E+00
  -5.184  0.310E+00  0.309E+00
  -5.174  0.326E+00  0.325E+00
  -5.164  0.336E+00  0.335E+00
  -5.154  0.346E+00  0.344E+00
  -5.144  0.360E+00  0.359E+00
  -5.134  0.382E+00  0.380E+00
  -5.124  0.408E+00  0.407E+00
  -5.114  0.432E+00  0.430E+00
  -5.104  0.445E+00  0.443E+00
  -5.094  0.439E+00  0.437E+00
  -5.084  0.409E+00  0.408E+00
  -5.074  0.358E+00  0.356E+00
  -5.064  0.290E+00  0.289E+00
  -5.054  0.216E+00  0.215E+00
  -5.044  0.146E+00  0.146E+00
  -5.034  0.899E-01  0.895E-01
  -5.024  0.519E-01  0.517E-01
  -5.014  0.336E-01  0.334E-01
  -5.004  0.322E-01  0.321E-01
  -4.994  0.431E-01  0.429E-01
  -4.984  0.615E-01  0.612E-01
  -4.974  0.843E-01  0.840E-01
  -4.964  0.112E+00  0.112E+00
  -4.954  0.150E+00  0.150E+00
  -4.944  0.205E+00  0.204E+00
  -4.934  0.285E+00  0.283E+00
  -4.924  0.392E+00  0.391E+00
  -4.914  0.526E+00  0.524E+00
  -4.904  0.676E+00  0.673E+00
  -4.894  0.823E+00  0.819E+00
  -4.884  0.946E+00  0.942E+00
  -4.874  0.102E+01  0.102E+01
  -4.864  0.104E+01  0.104E+01
  -4.854  0.993E+00  0.988E+00
  -4.844  0.885E+00  0.881E+00
  -4.834  0.735E+00  0.732E+00
  -4.824  0.565E+00  0.563E+00
  -4.814  0.400E+00  0.398E+00
  -4.804  0.259E+00  0.258E+00
  -4.794  0.159E+00  0.158E+00
  -4.784  0.104E+00  0.104E+00
  -4.774  0.948E-01  0.944E-01
  -4.764  0.123E+00  0.122E+00
  -4.754  0.177E+00  0.176E+00
  -4.744  0.246E+00  0.245E+00
  -4.734  0.318E+00  0.316E+00
  -4.724  0.385E+00  0.383E+00
  -4.714  0.442E+00  0.440E+00
  -4.704  0.489E+00  0.487E+00
  -4.694  0.525E+00  0.523E+00
  -4.684  0.552E+00  0.550E+00
  -4.674  0.571E+00  0.569E+00
  -4.664  0.582E+00  0.579E+00
  -4.654  0.582E+00  0.579E+00
  -4.644  0.570E+00  0.567E+00
  -4.634  0.543E+00  0.541E+00
  -4.624  0.503E+00  0.501E+00
  -4.614  0.450E+00  0.448E+00
  -4.604  0.390E+00  0.388E+00
  -4.594  0.325E+00  0.324E+00
  -4.584  0.262E+00  0.261E+00
  -4.574  0.204E+00  0.203E+00
  -4.564  0.153E+00  0.152E+00
  -4.554  0.110E+00  0.110E+00
  -4.544  0.770E-01  0.767E-01
  -4.534  0.538E-01  0.536E-01
  -4.524  0.437E-01  0.435E-01
  -4.514  0.510E-01  0.508E-01
  -4.504  0.811E-01  0.807E-01
  -4.494  0.138E+00  0.138E+00
  -4.484  0.224E+00  0.223E+00
  -4.474  0.336E+00  0.334E+00
  -4.464  0.466E+00  0.463E+00
  -4.454  0.600E+00  0.597E+00
  -4.444  0.723E+00  0.719E+00
  -4.434  0.817E+00  0.813E+00
  -4.424  0.872E+00  0.868E+00
  -4.414  0.881E+00  0.877E+00
  -4.404  0.850E+00  0.846E+00
  -4.394  0.789E+00  0.785E+00
  -4.384  0.718E+00  0.715E+00
  -4.374  0.656E+00  0.653E+00
  -4.364  0.619E+00  0.616E+00
  -4.354  0.613E+00  0.611E+00
  -4.344  0.637E+00  0.634E+00
  -4.334  0.679E+00  0.676E+00
  -4.324  0.725E+00  0.721E+00
  -4.314  0.761E+00  0.757E+00
  -4.304  0.779E+00  0.775E+00
  -4.294  0.778E+00  0.774E+00
  -4.284  0.763E+00  0.759E+00
  -4.274  0.744E+00  0.741E+00
  -4.264  0.732E+00  0.728E+00
  -4.254  0.730E+00  0.727E+00
  -4.244  0.740E+00  0.737E+00
  -4.234  0.754E+00  0.750E+00
  -4.224  0.759E+00  0.755E+00
  -4.214  0.744E+00  0.740E+00
  -4.204  0.699E+00  0.696E+00
  -4.194  0.622E+00  0.619E+00
  -4.184  0.516E+00  0.514E+00
  -4.174  0.394E+00  0.392E+00
  -4.164  0.271E+00  0.270E+00
  -4.154  0.163E+00  0.162E+00
  -4.144  0.850E-01  0.846E-01
  -4.134  0.463E-01  0.461E-01
  -4.124  0.516E-01  0.514E-01
  -4.114  0.995E-01  0.991E-01
  -4.104  0.183E+00  0.183E+00
  -4.094  0.292E+00  0.291E+00
  -4.084  0.410E+00  0.408E+00
  -4.074  0.521E+00  0.519E+00
  -4.064  0.610E+00  0.607E+00
  -4.054  0.664E+00  0.661E+00
  -4.044  0.678E+00  0.674E+00
  -4.034  0.652E+00  0.649E+00
  -4.024  0.597E+00  0.595E+00
  -4.014  0.527E+00  0.524E+00
  -4.004  0.457E+00  0.455E+00
  -3.994  0.403E+00  0.401E+00
  -3.984  0.372E+00  0.370E+00
  -3.974  0.367E+00  0.365E+00
  -3.964  0.383E+00  0.381E+00
  -3.954  0.411E+00  0.409E+00
  -3.944  0.444E+00  0.442E+00
  -3.934  0.479E+00  0.476E+00
  -3.924  0.515E+00  0.513E+00
  -3.914  0.562E+00  0.559E+00
  -3.904  0.629E+00  0.626E+00
  -3.894  0.723E+00  0.719E+00
  -3.884  0.844E+00  0.840E+00
  -3.874  0.982E+00  0.978E+00
  -3.864  0.112E+01  0.111E+01
  -3.854  0.123E+01  0.122E+01
  -3.844  0.128E+01  0.128E+01
  -3.834  0.127E+01  0.126E+01
  -3.824  0.119E+01  0.118E+01
  -3.814  0.105E+01  0.104E+01
  -3.804  0.879E+00  0.875E+00
  -3.794  0.717E+00  0.714E+00
  -3.784  0.595E+00  0.592E+00
  -3.774  0.535E+00  0.533E+00
  -3.764  0.547E+00  0.545E+00
  -3.754  0.621E+00  0.619E+00
  -3.744  0.735E+00  0.732E+00
  -3.734  0.859E+00  0.855E+00
  -3.724  0.963E+00  0.959E+00
  -3.714  0.103E+01  0.102E+01
  -3.704  0.105E+01  0.104E+01
  -3.694  0.102E+01  0.102E+01
  -3.684  0.979E+00  0.975E+00
  -3.674  0.935E+00  0.931E+00
  -3.664  0.910E+00  0.906E+00
  -3.654  0.916E+00  0.912E+00
  -3.644  0.952E+00  0.948E+00
  -3.634  0.101E+01  0.100E+01
  -3.624  0.106E+01  0.105E+01
  -3.614  0.109E+01  0.108E+01
  -3.604  0.108E+01  0.107E+01
  -3.594  0.102E+01  0.102E+01
  -3.584  0.930E+00  0.926E+00
  -3.574  0.811E+00  0.808E+00
  -3.564  0.689E+00  0.686E+00
  -3.554  0.584E+00  0.582E+00
  -3.544  0.511E+00  0.508E+00
  -3.534  0.473E+00  0.471E+00
  -3.524  0.466E+00  0.463E+00
  -3.514  0.476E+00  0.474E+00
  -3.504  0.490E+00  0.488E+00
  -3.494  0.495E+00  0.492E+00
  -3.484  0.484E+00  0.482E+00
  -3.474  0.459E+00  0.457E+00
  -3.464  0.428E+00  0.426E+00
  -3.454  0.404E+00  0.403E+00
  -3.444  0.403E+00  0.401E+00
  -3.434  0.435E+00  0.434E+00
  -3.424  0.508E+00  0.506E+00
  -3.414  0.617E+00  0.615E+00
  -3.404  0.753E+00  0.750E+00
  -3.394  0.898E+00  0.894E+00
  -3.384  0.103E+01  0.103E+01
  -3.374  0.113E+01  0.113E+01
  -3.364  0.119E+01  0.119E+01
  -3.354  0.121E+01  0.120E+01
  -3.344  0.119E+01  0.119E+01
  -3.334  0.116E+01  0.115E+01
  -3.324  0.113E+01  0.112E+01
  -3.314  0.113E+01  0.112E+01
  -3.304  0.116E+01  0.115E+01
  -3.294  0.122E+01  0.121E+01
  -3.284  0.130E+01  0.129E+01
  -3.274  0.137E+01  0.137E+01
  -3.264  0.141E+01  0.140E+01
  -3.254  0.139E+01  0.138E+01
  -3.244  0.130E+01  0.129E+01
  -3.234  0.115E+01  0.114E+01
  -3.224  0.955E+00  0.951E+00
  -3.214  0.751E+00  0.748E+00
  -3.204  0.567E+00  0.564E+00
  -3.194  0.430E+00  0.428E+00
  -3.184  0.356E+00  0.355E+00
  -3.174  0.347E+00  0.346E+00
  -3.164  0.393E+00  0.392E+00
  -3.154  0.475E+00  0.473E+00
  -3.144  0.572E+00  0.570E+00
  -3.134  0.666E+00  0.663E+00
  -3.124  0.745E+00  0.742E+00
  -3.114  0.803E+00  0.800E+00
  -3.104  0.841E+00  0.838E+00
  -3.094  0.861E+00  0.857E+00
  -3.084  0.862E+00  0.858E+00
  -3.074  0.843E+00  0.839E+00
  -3.064  0.803E+00  0.799E+00
  -3.054  0.741E+00  0.738E+00
  -3.044  0.663E+00  0.660E+00
  -3.034  0.579E+00  0.576E+00
  -3.024  0.503E+00  0.500E+00
  -3.014  0.451E+00  0.449E+00
  -3.004  0.435E+00  0.433E+00
  -2.994  0.461E+00  0.458E+00
  -2.984  0.522E+00  0.519E+00
  -2.974  0.607E+00  0.604E+00
  -2.964  0.698E+00  0.694E+00
  -2.954  0.774E+00  0.770E+00
  -2.944  0.818E+00  0.814E+00
  -2.934  0.820E+00  0.816E+00
  -2.924  0.777E+00  0.773E+00
  -2.914  0.692E+00  0.689E+00
  -2.904  0.578E+00  0.575E+00
  -2.894  0.448E+00  0.446E+00
  -2.884  0.321E+00  0.319E+00
  -2.874  0.214E+00  0.212E+00
  -2.864  0.142E+00  0.141E+00
  -2.854  0.118E+00  0.117E+00
  -2.844  0.147E+00  0.146E+00
  -2.834  0.231E+00  0.230E+00
  -2.824  0.364E+00  0.362E+00
  -2.814  0.536E+00  0.534E+00
  -2.804  0.735E+00  0.731E+00
  -2.794  0.944E+00  0.940E+00
  -2.784  0.115E+01  0.114E+01
  -2.774  0.134E+01  0.133E+01
  -2.764  0.149E+01  0.149E+01
  -2.754  0.160E+01  0.160E+01
  -2.744  0.166E+01  0.165E+01
  -2.734  0.164E+01  0.164E+01
  -2.724  0.156E+01  0.155E+01
  -2.714  0.141E+01  0.140E+01
  -2.704  0.120E+01  0.120E+01
  -2.694  0.964E+00  0.960E+00
  -2.684  0.714E+00  0.711E+00
  -2.674  0.479E+00  0.477E+00
  -2.664  0.278E+00  0.277E+00
  -2.654  0.122E+00  0.121E+00
  -2.644  0.132E-01  0.132E-01
  -2.634 -0.523E-01 -0.520E-01
  -2.624 -0.847E-01 -0.843E-01
  -2.614 -0.952E-01 -0.948E-01
  -2.604 -0.939E-01 -0.935E-01
  -2.594 -0.878E-01 -0.874E-01
  -2.584 -0.799E-01 -0.796E-01
  -2.574 -0.694E-01 -0.691E-01
  -2.564 -0.519E-01 -0.517E-01
  -2.554 -0.210E-01 -0.209E-01
  -2.544  0.303E-01  0.302E-01
  -2.534  0.108E+00  0.107E+00
  -2.524  0.213E+00  0.212E+00
  -2.514  0.343E+00  0.341E+00
  -2.504  0.487E+00  0.485E+00
  -2.494  0.633E+00  0.630E+00
  -2.484  0.760E+00  0.757E+00
  -2.474  0.854E+00  0.849E+00
  -2.464  0.901E+00  0.896E+00
  -2.454  0.897E+00  0.893E+00
  -2.444  0.850E+00  0.846E+00
  -2.434  0.774E+00  0.770E+00
  -2.424  0.690E+00  0.686E+00
  -2.414  0.616E+00  0.613E+00
  -2.404  0.569E+00  0.565E+00
  -2.394  0.552E+00  0.549E+00
  -2.384  0.562E+00  0.559E+00
  -2.374  0.586E+00  0.582E+00
  -2.364  0.606E+00  0.603E+00
  -2.354  0.611E+00  0.607E+00
  -2.344  0.594E+00  0.591E+00
  -2.334  0.561E+00  0.558E+00
  -2.324  0.523E+00  0.520E+00
  -2.314  0.497E+00  0.495E+00
  -2.304  0.498E+00  0.496E+00
  -2.294  0.532E+00  0.530E+00
  -2.284  0.597E+00  0.595E+00
  -2.274  0.681E+00  0.678E+00
  -2.264  0.765E+00  0.761E+00
  -2.254  0.830E+00  0.826E+00
  -2.244  0.860E+00  0.856E+00
  -2.234  0.846E+00  0.842E+00
  -2.224  0.789E+00  0.785E+00
  -2.214  0.694E+00  0.691E+00
  -2.204  0.576E+00  0.573E+00
  -2.194  0.447E+00  0.445E+00
  -2.184  0.321E+00  0.319E+00
  -2.174  0.209E+00  0.208E+00
  -2.164  0.117E+00  0.116E+00
  -2.154  0.479E-01  0.477E-01
  -2.144  0.831E-03  0.836E-03
  -2.134 -0.274E-01 -0.272E-01
  -2.124 -0.409E-01 -0.407E-01
  -2.114 -0.437E-01 -0.435E-01
  -2.104 -0.390E-01 -0.388E-01
  -2.094 -0.285E-01 -0.283E-01
  -2.084 -0.128E-01 -0.127E-01
  -2.074  0.801E-02  0.795E-02
  -2.064  0.338E-01  0.336E-01
  -2.054  0.637E-01  0.633E-01
  -2.044  0.955E-01  0.949E-01
  -2.034  0.126E+00  0.125E+00
  -2.024  0.151E+00  0.150E+00
  -2.014  0.166E+00  0.165E+00
  -2.004  0.169E+00  0.168E+00
  -1.994  0.160E+00  0.159E+00
  -1.984  0.139E+00  0.138E+00
  -1.974  0.109E+00  0.108E+00
  -1.964  0.757E-01  0.753E-01
  -1.954  0.435E-01  0.433E-01
  -1.944  0.172E-01  0.171E-01
  -1.934  0.615E-03  0.622E-03
  -1.924 -0.318E-02 -0.317E-02
  -1.914  0.768E-02  0.761E-02
  -1.904  0.340E-01  0.337E-01
  -1.894  0.749E-01  0.744E-01
  -1.884  0.128E+00  0.127E+00
  -1.874  0.189E+00  0.188E+00
  -1.864  0.252E+00  0.251E+00
  -1.854  0.311E+00  0.309E+00
  -1.844  0.359E+00  0.357E+00
  -1.834  0.393E+00  0.391E+00
  -1.824  0.413E+00  0.410E+00
  -1.814  0.421E+00  0.418E+00
  -1.804  0.422E+00  0.419E+00
  -1.794  0.423E+00  0.420E+00
  -1.784  0.427E+00  0.424E+00
  -1.774  0.435E+00  0.433E+00
  -1.764  0.446E+00  0.443E+00
  -1.754  0.453E+00  0.451E+00
  -1.744  0.451E+00  0.449E+00
  -1.734  0.435E+00  0.432E+00
  -1.724  0.401E+00  0.399E+00
  -1.714  0.353E+00  0.351E+00
  -1.704  0.294E+00  0.292E+00
  -1.694  0.232E+00  0.231E+00
  -1.684  0.175E+00  0.174E+00
  -1.674  0.129E+00  0.129E+00
  -1.664  0.100E+00  0.997E-01
  -1.654  0.888E-01  0.883E-01
  -1.644  0.931E-01  0.925E-01
  -1.634  0.108E+00  0.108E+00
  -1.624  0.128E+00  0.127E+00
  -1.614  0.146E+00  0.145E+00
  -1.604  0.156E+00  0.155E+00
  -1.594  0.155E+00  0.154E+00
  -1.584  0.143E+00  0.142E+00
  -1.574  0.122E+00  0.121E+00
  -1.564  0.949E-01  0.943E-01
  -1.554  0.667E-01  0.662E-01
  -1.544  0.408E-01  0.405E-01
  -1.534  0.198E-01  0.197E-01
  -1.524  0.482E-02  0.478E-02
  -1.514 -0.441E-02 -0.438E-02
  -1.504 -0.901E-02 -0.895E-02
  -1.494 -0.105E-01 -0.104E-01
  -1.484 -0.105E-01 -0.104E-01
  -1.474 -0.101E-01 -0.100E-01
  -1.464 -0.104E-01 -0.103E-01
  -1.454 -0.118E-01 -0.117E-01
  -1.444 -0.143E-01 -0.142E-01
  -1.434 -0.173E-01 -0.172E-01
  -1.424 -0.198E-01 -0.197E-01
  -1.414 -0.197E-01 -0.196E-01
  -1.404 -0.148E-01 -0.147E-01
  -1.394 -0.231E-02 -0.230E-02
  -1.384  0.196E-01  0.195E-01
  -1.374  0.514E-01  0.511E-01
  -1.364  0.913E-01  0.908E-01
  -1.354  0.135E+00  0.134E+00
  -1.344  0.177E+00  0.176E+00
  -1.334  0.212E+00  0.211E+00
  -1.324  0.237E+00  0.235E+00
  -1.314  0.255E+00  0.253E+00
  -1.304  0.277E+00  0.275E+00
  -1.294  0.317E+00  0.315E+00
  -1.284  0.396E+00  0.393E+00
  -1.274  0.526E+00  0.523E+00
  -1.264  0.712E+00  0.708E+00
  -1.254  0.944E+00  0.938E+00
  -1.244  0.120E+01  0.119E+01
  -1.234  0.143E+01  0.142E+01
  -1.224  0.160E+01  0.159E+01
  -1.214  0.168E+01  0.167E+01
  -1.204  0.166E+01  0.165E+01
  -1.194  0.153E+01  0.152E+01
  -1.184  0.133E+01  0.132E+01
  -1.174  0.109E+01  0.108E+01
  -1.164  0.843E+00  0.838E+00
  -1.154  0.633E+00  0.629E+00
  -1.144  0.472E+00  0.468E+00
  -1.134  0.361E+00  0.359E+00
  -1.124  0.292E+00  0.290E+00
  -1.114  0.249E+00  0.247E+00
  -1.104  0.217E+00  0.215E+00
  -1.094  0.186E+00  0.185E+00
  -1.084  0.154E+00  0.153E+00
  -1.074  0.124E+00  0.123E+00
  -1.064  0.103E+00  0.102E+00
  -1.054  0.983E-01  0.977E-01
  -1.044  0.113E+00  0.112E+00
  -1.034  0.145E+00  0.144E+00
  -1.024  0.188E+00  0.187E+00
  -1.014  0.233E+00  0.231E+00
  -1.004  0.268E+00  0.267E+00
  -0.994  0.288E+00  0.286E+00
  -0.984  0.290E+00  0.288E+00
  -0.974  0.281E+00  0.279E+00
  -0.964  0.276E+00  0.275E+00
  -0.954  0.294E+00  0.292E+00
  -0.944  0.355E+00  0.353E+00
  -0.934  0.474E+00  0.470E+00
  -0.924  0.657E+00  0.651E+00
  -0.914  0.895E+00  0.887E+00
  -0.904  0.117E+01  0.116E+01
  -0.894  0.145E+01  0.144E+01
  -0.884  0.171E+01  0.170E+01
  -0.874  0.192E+01  0.191E+01
  -0.864  0.207E+01  0.205E+01
  -0.854  0.214E+01  0.212E+01
  -0.844  0.215E+01  0.214E+01
  -0.834  0.212E+01  0.211E+01
  -0.824  0.207E+01  0.205E+01
  -0.814  0.201E+01  0.199E+01
  -0.804  0.194E+01  0.192E+01
  -0.794  0.187E+01  0.185E+01
  -0.784  0.178E+01  0.177E+01
  -0.774  0.168E+01  0.167E+01
  -0.764  0.156E+01  0.155E+01
  -0.754  0.143E+01  0.141E+01
  -0.744  0.128E+01  0.127E+01
  -0.734  0.113E+01  0.112E+01
  -0.724  0.987E+00  0.977E+00
  -0.714  0.867E+00  0.859E+00
  -0.704  0.777E+00  0.769E+00
  -0.694  0.720E+00  0.713E+00
  -0.684  0.701E+00  0.694E+00
  -0.674  0.720E+00  0.713E+00
  -0.664  0.775E+00  0.767E+00
  -0.654  0.859E+00  0.851E+00
  -0.644  0.965E+00  0.956E+00
  -0.634  0.108E+01  0.107E+01
  -0.624  0.118E+01  0.117E+01
  -0.614  0.126E+01  0.125E+01
  -0.604  0.130E+01  0.129E+01
  -0.594  0.129E+01  0.128E+01
  -0.584  0.123E+01  0.122E+01
  -0.574  0.113E+01  0.112E+01
  -0.564  0.100E+01  0.995E+00
  -0.554  0.879E+00  0.871E+00
  -0.544  0.777E+00  0.770E+00
  -0.534  0.715E+00  0.709E+00
  -0.524  0.700E+00  0.694E+00
  -0.514  0.727E+00  0.721E+00
  -0.504  0.781E+00  0.775E+00
  -0.494  0.844E+00  0.838E+00
  -0.484  0.898E+00  0.891E+00
  -0.474  0.933E+00  0.926E+00
  -0.464  0.948E+00  0.940E+00
  -0.454  0.948E+00  0.940E+00
  -0.444  0.946E+00  0.938E+00
  -0.434  0.951E+00  0.942E+00
  -0.424  0.967E+00  0.958E+00
  -0.414  0.993E+00  0.983E+00
  -0.404  0.102E+01  0.101E+01
  -0.394  0.103E+01  0.102E+01
  -0.384  0.101E+01  0.100E+01
  -0.374  0.967E+00  0.957E+00
  -0.364  0.891E+00  0.883E+00
  -0.354  0.795E+00  0.788E+00
  -0.344  0.691E+00  0.685E+00
  -0.334  0.593E+00  0.588E+00
  -0.324  0.507E+00  0.503E+00
  -0.314  0.438E+00  0.435E+00
  -0.304  0.381E+00  0.378E+00
  -0.294  0.330E+00  0.328E+00
  -0.284  0.280E+00  0.278E+00
  -0.274  0.224E+00  0.223E+00
  -0.264  0.163E+00  0.162E+00
  -0.254  0.979E-01  0.975E-01
  -0.244  0.341E-01  0.341E-01
  -0.234 -0.221E-01 -0.217E-01
  -0.224 -0.628E-01 -0.622E-01
  -0.214 -0.798E-01 -0.791E-01
  -0.204 -0.637E-01 -0.632E-01
  -0.194 -0.512E-02 -0.522E-02
  -0.184  0.104E+00  0.102E+00
  -0.174  0.266E+00  0.264E+00
  -0.164  0.480E+00  0.476E+00
  -0.154  0.734E+00  0.727E+00
  -0.144  0.101E+01  0.996E+00
  -0.134  0.127E+01  0.126E+01
  -0.124  0.149E+01  0.148E+01
  -0.114  0.165E+01  0.164E+01
  -0.104  0.172E+01  0.171E+01
  -0.094  0.170E+01  0.169E+01
  -0.084  0.159E+01  0.158E+01
  -0.074  0.142E+01  0.140E+01
  -0.064  0.119E+01  0.118E+01
  -0.054  0.943E+00  0.935E+00
  -0.044  0.700E+00  0.694E+00
  -0.034  0.479E+00  0.475E+00
  -0.024  0.293E+00  0.290E+00
  -0.014  0.148E+00  0.147E+00
  -0.004  0.459E-01  0.453E-01
   0.006 -0.159E-01 -0.159E-01
   0.016 -0.412E-01 -0.409E-01
   0.026 -0.347E-01 -0.344E-01
   0.036 -0.207E-02 -0.203E-02
   0.046  0.505E-01  0.501E-01
   0.056  0.116E+00  0.115E+00
   0.066  0.184E+00  0.183E+00
   0.076  0.246E+00  0.244E+00
   0.086  0.292E+00  0.289E+00
   0.096  0.313E+00  0.311E+00
   0.106  0.305E+00  0.303E+00
   0.116  0.269E+00  0.267E+00
   0.126  0.210E+00  0.208E+00
   0.136  0.139E+00  0.138E+00
   0.146  0.739E-01  0.733E-01
   0.156  0.319E-01  0.316E-01
   0.166  0.321E-01  0.318E-01
   0.176  0.908E-01  0.899E-01
   0.186  0.218E+00  0.216E+00
   0.196  0.414E+00  0.410E+00
   0.206  0.667E+00  0.661E+00
   0.216  0.952E+00  0.943E+00
   0.226  0.123E+01  0.122E+01
   0.236  0.147E+01  0.146E+01
   0.246  0.162E+01  0.161E+01
   0.256  0.167E+01  0.166E+01
   0.266  0.160E+01  0.159E+01
   0.276  0.143E+01  0.142E+01
   0.286  0.119E+01  0.117E+01
   0.296  0.900E+00  0.891E+00
   0.306  0.613E+00  0.608E+00
   0.316  0.359E+00  0.356E+00
   0.326  0.158E+00  0.157E+00
   0.336  0.197E-01  0.196E-01
   0.346 -0.561E-01 -0.555E-01
   0.356 -0.762E-01 -0.755E-01
   0.366 -0.505E-01 -0.500E-01
   0.376  0.105E-01  0.104E-01
   0.386  0.962E-01  0.954E-01
   0.396  0.196E+00  0.194E+00
   0.406  0.297E+00  0.295E+00
   0.416  0.388E+00  0.385E+00
   0.426  0.458E+00  0.454E+00
   0.436  0.496E+00  0.491E+00
   0.446  0.498E+00  0.493E+00
   0.456  0.464E+00  0.460E+00
   0.466  0.401E+00  0.397E+00
   0.476  0.319E+00  0.316E+00
   0.486  0.229E+00  0.227E+00
   0.496  0.143E+00  0.142E+00
   0.506  0.694E-01  0.688E-01
   0.516  0.123E-01  0.122E-01
   0.526 -0.268E-01 -0.265E-01
   0.536 -0.485E-01 -0.480E-01
   0.546 -0.540E-01 -0.535E-01
   0.556 -0.441E-01 -0.437E-01
   0.566 -0.177E-01 -0.176E-01
   0.576  0.274E-01  0.269E-01
   0.586  0.941E-01  0.930E-01
   0.596  0.185E+00  0.183E+00
   0.606  0.299E+00  0.295E+00
   0.616  0.432E+00  0.427E+00
   0.626  0.575E+00  0.569E+00
   0.636  0.715E+00  0.707E+00
   0.646  0.836E+00  0.827E+00
   0.656  0.923E+00  0.913E+00
   0.666  0.963E+00  0.953E+00
   0.676  0.952E+00  0.942E+00
   0.686  0.889E+00  0.880E+00
   0.696  0.783E+00  0.775E+00
   0.706  0.648E+00  0.642E+00
   0.716  0.501E+00  0.496E+00
   0.726  0.356E+00  0.353E+00
   0.736  0.227E+00  0.225E+00
   0.746  0.121E+00  0.120E+00
   0.756  0.426E-01  0.423E-01
   0.766 -0.104E-01 -0.103E-01
   0.776 -0.414E-01 -0.410E-01
   0.786 -0.553E-01 -0.547E-01
   0.796 -0.565E-01 -0.560E-01
   0.806 -0.484E-01 -0.480E-01
   0.816 -0.322E-01 -0.319E-01
   0.826 -0.680E-02 -0.674E-02
   0.836  0.303E-01  0.300E-01
   0.846  0.827E-01  0.818E-01
   0.856  0.153E+00  0.151E+00
   0.866  0.241E+00  0.239E+00
   0.876  0.345E+00  0.341E+00
   0.886  0.454E+00  0.450E+00
   0.896  0.557E+00  0.552E+00
   0.906  0.639E+00  0.632E+00
   0.916  0.685E+00  0.678E+00
   0.926  0.686E+00  0.679E+00
   0.936  0.641E+00  0.635E+00
   0.946  0.557E+00  0.552E+00
   0.956  0.451E+00  0.447E+00
   0.966  0.343E+00  0.340E+00
   0.976  0.255E+00  0.253E+00
   0.986  0.205E+00  0.203E+00
   0.996  0.202E+00  0.200E+00
   1.006  0.247E+00  0.244E+00
   1.016  0.330E+00  0.326E+00
   1.026  0.432E+00  0.428E+00
   1.036  0.533E+00  0.527E+00
   1.046  0.611E+00  0.604E+00
   1.056  0.648E+00  0.641E+00
   1.066  0.638E+00  0.631E+00
   1.076  0.581E+00  0.575E+00
   1.086  0.488E+00  0.483E+00
   1.096  0.376E+00  0.372E+00
   1.106  0.264E+00  0.261E+00
   1.116  0.169E+00  0.167E+00
   1.126  0.104E+00  0.103E+00
   1.136  0.746E-01  0.738E-01
   1.146  0.812E-01  0.804E-01
   1.156  0.117E+00  0.116E+00
   1.166  0.172E+00  0.170E+00
   1.176  0.232E+00  0.230E+00
   1.186  0.285E+00  0.282E+00
   1.196  0.320E+00  0.317E+00
   1.206  0.331E+00  0.328E+00
   1.216  0.316E+00  0.313E+00
   1.226  0.278E+00  0.275E+00
   1.236  0.225E+00  0.223E+00
   1.246  0.166E+00  0.165E+00
   1.256  0.109E+00  0.108E+00
   1.266  0.590E-01  0.584E-01
   1.276  0.205E-01  0.204E-01
   1.286 -0.646E-02 -0.639E-02
   1.296 -0.238E-01 -0.236E-01
   1.306 -0.344E-01 -0.340E-01
   1.316 -0.409E-01 -0.405E-01
   1.326 -0.449E-01 -0.444E-01
   1.336 -0.461E-01 -0.456E-01
   1.346 -0.425E-01 -0.420E-01
   1.356 -0.299E-01 -0.296E-01
   1.366 -0.359E-02 -0.354E-02
   1.376  0.414E-01  0.409E-01
   1.386  0.108E+00  0.107E+00
   1.396  0.196E+00  0.194E+00
   1.406  0.301E+00  0.298E+00
   1.416  0.415E+00  0.410E+00
   1.426  0.526E+00  0.520E+00
   1.436  0.622E+00  0.615E+00
   1.446  0.694E+00  0.686E+00
   1.456  0.735E+00  0.726E+00
   1.466  0.743E+00  0.734E+00
   1.476  0.721E+00  0.712E+00
   1.486  0.675E+00  0.667E+00
   1.496  0.613E+00  0.606E+00
   1.506  0.542E+00  0.535E+00
   1.516  0.468E+00  0.463E+00
   1.526  0.397E+00  0.392E+00
   1.536  0.333E+00  0.329E+00
   1.546  0.279E+00  0.276E+00
   1.556  0.237E+00  0.234E+00
   1.566  0.206E+00  0.204E+00
   1.576  0.185E+00  0.183E+00
   1.586  0.168E+00  0.167E+00
   1.596  0.152E+00  0.151E+00
   1.606  0.132E+00  0.131E+00
   1.616  0.105E+00  0.104E+00
   1.626  0.703E-01  0.699E-01
   1.636  0.305E-01  0.304E-01
   1.646 -0.913E-02 -0.903E-02
   1.656 -0.408E-01 -0.405E-01
   1.666 -0.545E-01 -0.541E-01
   1.676 -0.390E-01 -0.387E-01
   1.686  0.167E-01  0.166E-01
   1.696  0.121E+00  0.120E+00
   1.706  0.278E+00  0.276E+00
   1.716  0.483E+00  0.480E+00
   1.726  0.722E+00  0.717E+00
   1.736  0.973E+00  0.966E+00
   1.746  0.121E+01  0.120E+01
   1.756  0.140E+01  0.139E+01
   1.766  0.152E+01  0.151E+01
   1.776  0.156E+01  0.154E+01
   1.786  0.151E+01  0.150E+01
   1.796  0.139E+01  0.138E+01
   1.806  0.121E+01  0.121E+01
   1.816  0.102E+01  0.102E+01
   1.826  0.843E+00  0.837E+00
   1.836  0.705E+00  0.700E+00
   1.846  0.632E+00  0.627E+00
   1.856  0.640E+00  0.635E+00
   1.866  0.733E+00  0.726E+00
   1.876  0.901E+00  0.893E+00
   1.886  0.112E+01  0.111E+01
   1.896  0.137E+01  0.136E+01
   1.906  0.161E+01  0.159E+01
   1.916  0.180E+01  0.178E+01
   1.926  0.192E+01  0.190E+01
   1.936  0.195E+01  0.194E+01
   1.946  0.190E+01  0.188E+01
   1.956  0.178E+01  0.177E+01
   1.966  0.162E+01  0.161E+01
   1.976  0.146E+01  0.144E+01
   1.986  0.132E+01  0.130E+01
   1.996  0.122E+01  0.121E+01
   2.006  0.120E+01  0.119E+01
   2.016  0.123E+01  0.122E+01
   2.026  0.130E+01  0.129E+01
   2.036  0.139E+01  0.138E+01
   2.046  0.146E+01  0.145E+01
   2.056  0.149E+01  0.148E+01
   2.066  0.146E+01  0.145E+01
   2.076  0.138E+01  0.137E+01
   2.086  0.124E+01  0.123E+01
   2.096  0.108E+01  0.107E+01
   2.106  0.907E+00  0.900E+00
   2.116  0.756E+00  0.750E+00
   2.126  0.641E+00  0.635E+00
   2.136  0.569E+00  0.564E+00
   2.146  0.544E+00  0.540E+00
   2.156  0.566E+00  0.561E+00
   2.166  0.629E+00  0.623E+00
   2.176  0.725E+00  0.719E+00
   2.186  0.843E+00  0.836E+00
   2.196  0.963E+00  0.956E+00
   2.206  0.107E+01  0.106E+01
   2.216  0.113E+01  0.112E+01
   2.226  0.113E+01  0.113E+01
   2.236  0.108E+01  0.107E+01
   2.246  0.965E+00  0.959E+00
   2.256  0.820E+00  0.814E+00
   2.266  0.671E+00  0.666E+00
   2.276  0.553E+00  0.549E+00
   2.286  0.493E+00  0.490E+00
   2.296  0.507E+00  0.503E+00
   2.306  0.594E+00  0.590E+00
   2.316  0.741E+00  0.735E+00
   2.326  0.920E+00  0.913E+00
   2.336  0.110E+01  0.110E+01
   2.346  0.126E+01  0.126E+01
   2.356  0.139E+01  0.138E+01
   2.366  0.147E+01  0.146E+01
   2.376  0.151E+01  0.150E+01
   2.386  0.154E+01  0.153E+01
   2.396  0.158E+01  0.156E+01
   2.406  0.162E+01  0.161E+01
   2.416  0.169E+01  0.168E+01
   2.426  0.177E+01  0.176E+01
   2.436  0.185E+01  0.183E+01
   2.446  0.190E+01  0.188E+01
   2.456  0.191E+01  0.189E+01
   2.466  0.186E+01  0.185E+01
   2.476  0.177E+01  0.175E+01
   2.486  0.163E+01  0.162E+01
   2.496  0.147E+01  0.146E+01
   2.506  0.130E+01  0.129E+01
   2.516  0.114E+01  0.113E+01
   2.526  0.980E+00  0.972E+00
   2.536  0.833E+00  0.827E+00
   2.546  0.692E+00  0.687E+00
   2.556  0.554E+00  0.550E+00
   2.566  0.422E+00  0.419E+00
   2.576  0.303E+00  0.301E+00
   2.586  0.209E+00  0.207E+00
   2.596  0.151E+00  0.150E+00
   2.606  0.140E+00  0.139E+00
   2.616  0.180E+00  0.179E+00
   2.626  0.269E+00  0.268E+00
   2.636  0.398E+00  0.396E+00
   2.646  0.554E+00  0.550E+00
   2.656  0.720E+00  0.715E+00
   2.666  0.883E+00  0.876E+00
   2.676  0.103E+01  0.102E+01
   2.686  0.115E+01  0.114E+01
   2.696  0.123E+01  0.122E+01
   2.706  0.127E+01  0.126E+01
   2.716  0.128E+01  0.127E+01
   2.726  0.127E+01  0.125E+01
   2.736  0.123E+01  0.122E+01
   2.746  0.119E+01  0.118E+01
   2.756  0.116E+01  0.115E+01
   2.766  0.115E+01  0.114E+01
   2.776  0.117E+01  0.116E+01
   2.786  0.120E+01  0.119E+01
   2.796  0.125E+01  0.124E+01
   2.806  0.130E+01  0.129E+01
   2.816  0.134E+01  0.133E+01
   2.826  0.136E+01  0.135E+01
   2.836  0.137E+01  0.136E+01
   2.846  0.136E+01  0.135E+01
   2.856  0.135E+01  0.133E+01
   2.866  0.132E+01  0.131E+01
   2.876  0.131E+01  0.130E+01
   2.886  0.130E+01  0.129E+01
   2.896  0.131E+01  0.129E+01
   2.906  0.133E+01  0.131E+01
   2.916  0.136E+01  0.135E+01
   2.926  0.141E+01  0.139E+01
   2.936  0.145E+01  0.144E+01
   2.946  0.149E+01  0.147E+01
   2.956  0.151E+01  0.150E+01
   2.966  0.151E+01  0.150E+01
   2.976  0.151E+01  0.149E+01
   2.986  0.149E+01  0.148E+01
   2.996  0.148E+01  0.146E+01
   3.006  0.148E+01  0.146E+01
   3.016  0.149E+01  0.148E+01
   3.026  0.152E+01  0.151E+01
   3.036  0.156E+01  0.154E+01
   3.046  0.159E+01  0.158E+01
   3.056  0.162E+01  0.160E+01
   3.066  0.163E+01  0.162E+01
   3.076  0.164E+01  0.162E+01
   3.086  0.163E+01  0.162E+01
   3.096  0.163E+01  0.162E+01
   3.106  0.164E+01  0.162E+01
   3.116  0.165E+01  0.163E+01
   3.126  0.167E+01  0.165E+01
   3.136  0.168E+01  0.167E+01
   3.146  0.168E+01  0.166E+01
   3.156  0.164E+01  0.162E+01
   3.166  0.155E+01  0.154E+01
   3.176  0.141E+01  0.139E+01
   3.186  0.121E+01  0.120E+01
   3.196  0.984E+00  0.977E+00
   3.206  0.750E+00  0.745E+00
   3.216  0.545E+00  0.541E+00
   3.226  0.406E+00  0.404E+00
   3.236  0.369E+00  0.367E+00
   3.246  0.458E+00  0.455E+00
   3.256  0.682E+00  0.677E+00
   3.266  0.103E+01  0.102E+01
   3.276  0.147E+01  0.146E+01
   3.286  0.195E+01  0.194E+01
   3.296  0.242E+01  0.240E+01
   3.306  0.280E+01  0.278E+01
   3.316  0.306E+01  0.303E+01
   3.326  0.315E+01  0.312E+01
   3.336  0.308E+01  0.305E+01
   3.346  0.285E+01  0.283E+01
   3.356  0.250E+01  0.248E+01
   3.366  0.208E+01  0.206E+01
   3.376  0.163E+01  0.162E+01
   3.386  0.120E+01  0.119E+01
   3.396  0.838E+00  0.831E+00
   3.406  0.571E+00  0.566E+00
   3.416  0.428E+00  0.424E+00
   3.426  0.423E+00  0.419E+00
   3.436  0.556E+00  0.551E+00
   3.446  0.811E+00  0.802E+00
   3.456  0.115E+01  0.114E+01
   3.466  0.154E+01  0.153E+01
   3.476  0.192E+01  0.190E+01
   3.486  0.224E+01  0.221E+01
   3.496  0.245E+01  0.242E+01
   3.506  0.253E+01  0.251E+01
   3.516  0.248E+01  0.246E+01
   3.526  0.232E+01  0.230E+01
   3.536  0.207E+01  0.205E+01
   3.546  0.178E+01  0.177E+01
   3.556  0.149E+01  0.148E+01
   3.566  0.124E+01  0.123E+01
   3.576  0.103E+01  0.102E+01
   3.586  0.882E+00  0.874E+00
   3.596  0.784E+00  0.776E+00
   3.606  0.724E+00  0.717E+00
   3.616  0.688E+00  0.681E+00
   3.626  0.663E+00  0.657E+00
   3.636  0.644E+00  0.638E+00
   3.646  0.627E+00  0.621E+00
   3.656  0.614E+00  0.609E+00
   3.666  0.613E+00  0.608E+00
   3.676  0.632E+00  0.627E+00
   3.686  0.683E+00  0.677E+00
   3.696  0.776E+00  0.768E+00
   3.706  0.919E+00  0.911E+00
   3.716  0.112E+01  0.111E+01
   3.726  0.136E+01  0.135E+01
   3.736  0.164E+01  0.162E+01
   3.746  0.192E+01  0.190E+01
   3.756  0.218E+01  0.215E+01
   3.766  0.237E+01  0.234E+01
   3.776  0.246E+01  0.243E+01
   3.786  0.243E+01  0.241E+01
   3.796  0.230E+01  0.228E+01
   3.806  0.207E+01  0.205E+01
   3.816  0.179E+01  0.177E+01
   3.826  0.150E+01  0.148E+01
   3.836  0.123E+01  0.122E+01
   3.846  0.103E+01  0.102E+01
   3.856  0.907E+00  0.898E+00
   3.866  0.873E+00  0.863E+00
   3.876  0.913E+00  0.903E+00
   3.886  0.101E+01  0.996E+00
   3.896  0.113E+01  0.112E+01
   3.906  0.125E+01  0.124E+01
   3.916  0.135E+01  0.134E+01
   3.926  0.142E+01  0.141E+01
   3.936  0.146E+01  0.144E+01
   3.946  0.147E+01  0.145E+01
   3.956  0.146E+01  0.145E+01
   3.966  0.145E+01  0.143E+01
   3.976  0.144E+01  0.143E+01
   3.986  0.144E+01  0.142E+01
   3.996  0.143E+01  0.141E+01
   4.006  0.142E+01  0.140E+01
   4.016  0.139E+01  0.138E+01
   4.026  0.135E+01  0.133E+01
   4.036  0.129E+01  0.128E+01
   4.046  0.122E+01  0.121E+01
   4.056  0.115E+01  0.114E+01
   4.066  0.109E+01  0.108E+01
   4.076  0.104E+01  0.103E+01
   4.086  0.101E+01  0.100E+01
   4.096  0.995E+00  0.984E+00
   4.106  0.988E+00  0.978E+00
   4.116  0.988E+00  0.977E+00
   4.126  0.989E+00  0.979E+00
   4.136  0.990E+00  0.979E+00
   4.146  0.991E+00  0.980E+00
   4.156  0.995E+00  0.984E+00
   4.166  0.101E+01  0.998E+00
   4.176  0.104E+01  0.103E+01
   4.186  0.110E+01  0.109E+01
   4.196  0.119E+01  0.118E+01
   4.206  0.133E+01  0.131E+01
   4.216  0.149E+01  0.147E+01
   4.226  0.167E+01  0.165E+01
   4.236  0.186E+01  0.183E+01
   4.246  0.202E+01  0.199E+01
   4.256  0.215E+01  0.212E+01
   4.266  0.223E+01  0.220E+01
   4.276  0.225E+01  0.222E+01
   4.286  0.223E+01  0.220E+01
   4.296  0.218E+01  0.215E+01
   4.306  0.210E+01  0.208E+01
   4.316  0.201E+01  0.199E+01
   4.326  0.191E+01  0.188E+01
   4.336  0.178E+01  0.176E+01
   4.346  0.164E+01  0.162E+01
   4.356  0.146E+01  0.144E+01
   4.366  0.125E+01  0.123E+01
   4.376  0.102E+01  0.101E+01
   4.386  0.782E+00  0.771E+00
   4.396  0.555E+00  0.548E+00
   4.406  0.363E+00  0.358E+00
   4.416  0.222E+00  0.219E+00
   4.426  0.146E+00  0.144E+00
   4.436  0.138E+00  0.136E+00
   4.446  0.194E+00  0.191E+00
   4.456  0.301E+00  0.297E+00
   4.466  0.442E+00  0.436E+00
   4.476  0.600E+00  0.591E+00
   4.486  0.759E+00  0.748E+00
   4.496  0.911E+00  0.898E+00
   4.506  0.106E+01  0.104E+01
   4.516  0.120E+01  0.119E+01
   4.526  0.136E+01  0.134E+01
   4.536  0.152E+01  0.150E+01
   4.546  0.170E+01  0.168E+01
   4.556  0.188E+01  0.185E+01
   4.566  0.203E+01  0.200E+01
   4.576  0.212E+01  0.209E+01
   4.586  0.214E+01  0.211E+01
   4.596  0.208E+01  0.205E+01
   4.606  0.193E+01  0.191E+01
   4.616  0.172E+01  0.170E+01
   4.626  0.148E+01  0.146E+01
   4.636  0.123E+01  0.122E+01
   4.646  0.101E+01  0.995E+00
   4.656  0.819E+00  0.808E+00
   4.666  0.676E+00  0.667E+00
   4.676  0.577E+00  0.569E+00
   4.686  0.515E+00  0.508E+00
   4.696  0.482E+00  0.476E+00
   4.706  0.468E+00  0.461E+00
   4.716  0.464E+00  0.457E+00
   4.726  0.463E+00  0.456E+00
   4.736  0.460E+00  0.453E+00
   4.746  0.451E+00  0.444E+00
   4.756  0.432E+00  0.425E+00
   4.766  0.402E+00  0.395E+00
   4.776  0.363E+00  0.357E+00
   4.786  0.320E+00  0.315E+00
   4.796  0.285E+00  0.280E+00
   4.806  0.271E+00  0.267E+00
   4.816  0.294E+00  0.289E+00
   4.826  0.364E+00  0.359E+00
   4.836  0.488E+00  0.480E+00
   4.846  0.657E+00  0.647E+00
   4.856  0.857E+00  0.844E+00
   4.866  0.106E+01  0.105E+01
   4.876  0.125E+01  0.123E+01
   4.886  0.139E+01  0.137E+01
   4.896  0.148E+01  0.145E+01
   4.906  0.149E+01  0.147E+01
   4.916  0.145E+01  0.142E+01
   4.926  0.135E+01  0.133E+01
   4.936  0.121E+01  0.119E+01
   4.946  0.105E+01  0.104E+01
   4.956  0.890E+00  0.874E+00
   4.966  0.733E+00  0.719E+00
   4.976  0.591E+00  0.580E+00
   4.986  0.471E+00  0.461E+00
   4.996  0.377E+00  0.368E+00
   5.006  0.310E+00  0.302E+00
   5.016  0.270E+00  0.264E+00
   5.026  0.259E+00  0.252E+00
   5.036  0.272E+00  0.265E+00
   5.046  0.308E+00  0.301E+00
   5.056  0.363E+00  0.354E+00
   5.066  0.430E+00  0.420E+00
   5.076  0.504E+00  0.492E+00
   5.086  0.577E+00  0.564E+00
   5.096  0.644E+00  0.630E+00
   5.106  0.703E+00  0.688E+00
   5.116  0.750E+00  0.734E+00
   5.126  0.783E+00  0.767E+00
   5.136  0.803E+00  0.786E+00
   5.146  0.807E+00  0.790E+00
   5.156  0.793E+00  0.777E+00
   5.166  0.761E+00  0.747E+00
   5.176  0.713E+00  0.700E+00
   5.186  0.654E+00  0.641E+00
   5.196  0.589E+00  0.578E+00
   5.206  0.529E+00  0.519E+00
   5.216  0.482E+00  0.472E+00
   5.226  0.450E+00  0.441E+00
   5.236  0.435E+00  0.426E+00
   5.246  0.431E+00  0.422E+00
   5.256  0.431E+00  0.421E+00
   5.266  0.425E+00  0.415E+00
   5.276  0.407E+00  0.397E+00
   5.286  0.372E+00  0.364E+00
   5.296  0.323E+00  0.316E+00
   5.306  0.263E+00  0.257E+00
   5.316  0.200E+00  0.196E+00
   5.326  0.142E+00  0.139E+00
   5.336  0.973E-01  0.955E-01
   5.346  0.726E-01  0.712E-01
   5.356  0.711E-01  0.696E-01
   5.366  0.930E-01  0.907E-01
   5.376  0.135E+00  0.131E+00
   5.386  0.190E+00  0.184E+00
   5.396  0.249E+00  0.243E+00
   5.406  0.306E+00  0.298E+00
   5.416  0.352E+00  0.343E+00
   5.426  0.385E+00  0.375E+00
   5.436  0.405E+00  0.394E+00
   5.446  0.413E+00  0.402E+00
   5.456  0.415E+00  0.404E+00
   5.466  0.413E+00  0.403E+00
   5.476  0.409E+00  0.399E+00
   5.486  0.401E+00  0.391E+00
   5.496  0.386E+00  0.377E+00
   5.506  0.361E+00  0.352E+00
   5.516  0.323E+00  0.316E+00
   5.526  0.274E+00  0.268E+00
   5.536  0.217E+00  0.212E+00
   5.546  0.157E+00  0.154E+00
   5.556  0.100E+00  0.981E-01
   5.566  0.513E-01  0.502E-01
   5.576  0.128E-01  0.126E-01
   5.586 -0.146E-01 -0.141E-01
   5.596 -0.314E-01 -0.305E-01
   5.606 -0.392E-01 -0.381E-01
   5.616 -0.387E-01 -0.376E-01
   5.626 -0.297E-01 -0.289E-01
   5.636 -0.111E-01 -0.109E-01
   5.646  0.189E-01  0.182E-01
   5.656  0.614E-01  0.593E-01
   5.666  0.116E+00  0.112E+00
   5.676  0.179E+00  0.173E+00
   5.686  0.245E+00  0.237E+00
   5.696  0.307E+00  0.297E+00
   5.706  0.355E+00  0.343E+00
   5.716  0.382E+00  0.369E+00
   5.726  0.383E+00  0.371E+00
   5.736  0.360E+00  0.348E+00
   5.746  0.315E+00  0.304E+00
   5.756  0.256E+00  0.247E+00
   5.766  0.192E+00  0.186E+00
   5.776  0.132E+00  0.127E+00
   5.786  0.819E-01  0.793E-01
   5.796  0.461E-01  0.446E-01
   5.806  0.248E-01  0.239E-01
   5.816  0.159E-01  0.152E-01
   5.826  0.157E-01  0.150E-01
   5.836  0.202E-01  0.193E-01
   5.846  0.257E-01  0.246E-01
   5.856  0.296E-01  0.284E-01
   5.866  0.305E-01  0.293E-01
   5.876  0.284E-01  0.273E-01
   5.886  0.238E-01  0.228E-01
   5.896  0.178E-01  0.171E-01
   5.906  0.117E-01  0.113E-01
   5.916  0.638E-02  0.613E-02
   5.926  0.228E-02  0.219E-02
   5.936 -0.421E-03 -0.406E-03
   5.946 -0.187E-02 -0.180E-02
   5.956 -0.237E-02 -0.228E-02
   5.966 -0.227E-02 -0.218E-02
   5.976 -0.187E-02 -0.180E-02
   5.986 -0.139E-02 -0.134E-02
   5.996 -0.952E-03 -0.916E-03
   6.006 -0.606E-03 -0.583E-03
   6.016 -0.361E-03 -0.348E-03
   6.026 -0.203E-03 -0.195E-03
   6.036 -0.108E-03 -0.104E-03
   6.046 -0.541E-04 -0.521E-04
   6.056 -0.258E-04 -0.248E-04
   6.066 -0.117E-04 -0.112E-04
   6.076 -0.503E-05 -0.484E-05
   6.086 -0.206E-05 -0.199E-05
   6.096 -0.806E-06 -0.776E-06
   6.106 -0.300E-06 -0.289E-06
   6.116 -0.107E-06 -0.103E-06
   6.126 -0.361E-07 -0.347E-07
   6.136 -0.117E-07 -0.112E-07
   6.146 -0.363E-08 -0.349E-08
   6.156 -0.116E-08 -0.111E-08
   6.166 -0.672E-09 -0.622E-09
   6.176 -0.143E-08 -0.129E-08
   6.186 -0.468E-08 -0.419E-08
   6.196 -0.154E-07 -0.138E-07
   6.206 -0.483E-07 -0.433E-07
   6.216 -0.145E-06 -0.130E-06
   6.226 -0.416E-06 -0.372E-06
   6.236 -0.114E-05 -0.102E-05
   6.246 -0.296E-05 -0.265E-05
   6.256 -0.734E-05 -0.657E-05
   6.266 -0.174E-04 -0.155E-04
   6.276 -0.390E-04 -0.349E-04
   6.286 -0.834E-04 -0.746E-04
   6.296 -0.169E-03 -0.151E-03
   6.306 -0.325E-03 -0.291E-03
   6.316 -0.591E-03 -0.529E-03
   6.326 -0.101E-02 -0.907E-03
   6.336 -0.163E-02 -0.146E-02
   6.346 -0.245E-02 -0.219E-02
   6.356 -0.340E-02 -0.304E-02
   6.366 -0.428E-02 -0.383E-02
   6.376 -0.473E-02 -0.423E-02
   6.386 -0.418E-02 -0.374E-02
   6.396 -0.192E-02 -0.172E-02
   6.406  0.277E-02  0.248E-02
   6.416  0.105E-01  0.936E-02
   6.426  0.213E-01  0.190E-01
   6.436  0.346E-01  0.310E-01
   6.446  0.494E-01  0.442E-01
   6.456  0.636E-01  0.569E-01
   6.466  0.749E-01  0.671E-01
   6.476  0.815E-01  0.730E-01
   6.486  0.817E-01  0.733E-01
   6.496  0.754E-01  0.676E-01
   6.506  0.634E-01  0.569E-01
   6.516  0.478E-01  0.430E-01
   6.526  0.315E-01  0.285E-01
   6.536  0.177E-01  0.162E-01
   6.546  0.939E-02  0.884E-02
   6.556  0.911E-02  0.858E-02
   6.566  0.183E-01  0.168E-01
   6.576  0.376E-01  0.338E-01
   6.586  0.664E-01  0.591E-01
   6.596  0.103E+00  0.914E-01
   6.606  0.147E+00  0.129E+00
   6.616  0.194E+00  0.170E+00
   6.626  0.243E+00  0.211E+00
   6.636  0.290E+00  0.251E+00
   6.646  0.331E+00  0.285E+00
   6.656  0.363E+00  0.311E+00
   6.666  0.381E+00  0.325E+00
   6.676  0.382E+00  0.326E+00
   6.686  0.367E+00  0.312E+00
   6.696  0.338E+00  0.287E+00
   6.706  0.300E+00  0.255E+00
   6.716  0.263E+00  0.224E+00
   6.726  0.235E+00  0.202E+00
   6.736  0.223E+00  0.194E+00
   6.746  0.231E+00  0.204E+00
   6.756  0.256E+00  0.228E+00
   6.766  0.294E+00  0.263E+00
   6.776  0.335E+00  0.300E+00
   6.786  0.370E+00  0.330E+00
   6.796  0.391E+00  0.348E+00
   6.806  0.395E+00  0.348E+00
   6.816  0.378E+00  0.332E+00
   6.826  0.344E+00  0.300E+00
   6.836  0.297E+00  0.257E+00
   6.846  0.243E+00  0.208E+00
   6.856  0.187E+00  0.158E+00
   6.866  0.135E+00  0.113E+00
   6.876  0.942E-01  0.778E-01
   6.886  0.693E-01  0.564E-01
   6.896  0.641E-01  0.520E-01
   6.906  0.804E-01  0.658E-01
   6.916  0.117E+00  0.966E-01
   6.926  0.168E+00  0.140E+00
   6.936  0.226E+00  0.190E+00
   6.946  0.282E+00  0.237E+00
   6.956  0.324E+00  0.274E+00
   6.966  0.346E+00  0.294E+00
   6.976  0.344E+00  0.293E+00
   6.986  0.319E+00  0.273E+00
   6.996  0.278E+00  0.240E+00
   7.006  0.233E+00  0.204E+00
   7.016  0.197E+00  0.175E+00
   7.026  0.185E+00  0.166E+00
   7.036  0.208E+00  0.187E+00
   7.046  0.270E+00  0.242E+00
   7.056  0.372E+00  0.331E+00
   7.066  0.502E+00  0.445E+00
   7.076  0.646E+00  0.569E+00
   7.086  0.781E+00  0.687E+00
   7.096  0.888E+00  0.778E+00
   7.106  0.948E+00  0.828E+00
   7.116  0.953E+00  0.830E+00
   7.126  0.904E+00  0.785E+00
   7.136  0.813E+00  0.703E+00
   7.146  0.700E+00  0.601E+00
   7.156  0.589E+00  0.500E+00
   7.166  0.502E+00  0.420E+00
   7.176  0.456E+00  0.374E+00
   7.186  0.458E+00  0.371E+00
   7.196  0.507E+00  0.408E+00
   7.206  0.590E+00  0.476E+00
   7.216  0.690E+00  0.561E+00
   7.226  0.789E+00  0.648E+00
   7.236  0.870E+00  0.722E+00
   7.246  0.922E+00  0.773E+00
   7.256  0.940E+00  0.797E+00
   7.266  0.925E+00  0.793E+00
   7.276  0.882E+00  0.765E+00
   7.286  0.819E+00  0.718E+00
   7.296  0.746E+00  0.660E+00
   7.306  0.673E+00  0.599E+00
   7.316  0.611E+00  0.544E+00
   7.326  0.571E+00  0.506E+00
   7.336  0.562E+00  0.492E+00
   7.346  0.592E+00  0.509E+00
   7.356  0.660E+00  0.558E+00
   7.366  0.760E+00  0.633E+00
   7.376  0.874E+00  0.722E+00
   7.386  0.980E+00  0.806E+00
   7.396  0.106E+01  0.866E+00
   7.406  0.108E+01  0.888E+00
   7.416  0.105E+01  0.864E+00
   7.426  0.968E+00  0.794E+00
   7.436  0.837E+00  0.689E+00
   7.446  0.680E+00  0.563E+00
   7.456  0.517E+00  0.431E+00
   7.466  0.364E+00  0.307E+00
   7.476  0.235E+00  0.203E+00
   7.486  0.141E+00  0.128E+00
   7.496  0.908E-01  0.886E-01
   7.506  0.898E-01  0.905E-01
   7.516  0.145E+00  0.140E+00
   7.526  0.260E+00  0.240E+00
   7.536  0.436E+00  0.391E+00
   7.546  0.665E+00  0.587E+00
   7.556  0.934E+00  0.815E+00
   7.566  0.122E+01  0.105E+01
   7.576  0.149E+01  0.128E+01
   7.586  0.173E+01  0.147E+01
   7.596  0.189E+01  0.160E+01
   7.606  0.197E+01  0.166E+01
   7.616  0.194E+01  0.163E+01
   7.626  0.182E+01  0.152E+01
   7.636  0.162E+01  0.135E+01
   7.646  0.136E+01  0.114E+01
   7.656  0.108E+01  0.902E+00
   7.666  0.811E+00  0.679E+00
   7.676  0.592E+00  0.494E+00
   7.686  0.448E+00  0.371E+00
   7.696  0.398E+00  0.322E+00
   7.706  0.444E+00  0.351E+00
   7.716  0.575E+00  0.450E+00
   7.726  0.767E+00  0.602E+00
   7.736  0.988E+00  0.782E+00
   7.746  0.120E+01  0.963E+00
   7.756  0.139E+01  0.112E+01
   7.766  0.152E+01  0.124E+01
   7.776  0.158E+01  0.132E+01
   7.786  0.160E+01  0.135E+01
   7.796  0.158E+01  0.136E+01
   7.806  0.155E+01  0.134E+01
   7.816  0.152E+01  0.133E+01
   7.826  0.150E+01  0.132E+01
   7.836  0.150E+01  0.132E+01
   7.846  0.152E+01  0.133E+01
   7.856  0.154E+01  0.133E+01
   7.866  0.153E+01  0.132E+01
   7.876  0.150E+01  0.128E+01
   7.886  0.143E+01  0.122E+01
   7.896  0.133E+01  0.113E+01
   7.906  0.122E+01  0.105E+01
   7.916  0.113E+01  0.975E+00
   7.926  0.109E+01  0.940E+00
   7.936  0.110E+01  0.954E+00
   7.946  0.117E+01  0.102E+01
   7.956  0.129E+01  0.112E+01
   7.966  0.143E+01  0.123E+01
   7.976  0.156E+01  0.134E+01
   7.986  0.165E+01  0.141E+01
   7.996  0.169E+01  0.144E+01
   8.006  0.166E+01  0.141E+01
   8.016  0.158E+01  0.134E+01
   8.026  0.145E+01  0.124E+01
   8.036  0.132E+01  0.113E+01
   8.046  0.119E+01  0.102E+01
   8.056  0.110E+01  0.945E+00
   8.066  0.104E+01  0.897E+00
   8.076  0.102E+01  0.879E+00
   8.086  0.102E+01  0.887E+00
   8.096  0.104E+01  0.912E+00
   8.106  0.108E+01  0.948E+00
   8.116  0.111E+01  0.991E+00
   8.126  0.115E+01  0.104E+01
   8.136  0.119E+01  0.109E+01
   8.146  0.124E+01  0.114E+01
   8.156  0.130E+01  0.120E+01
   8.166  0.136E+01  0.125E+01
   8.176  0.143E+01  0.130E+01
   8.186  0.149E+01  0.135E+01
   8.196  0.154E+01  0.138E+01
   8.206  0.157E+01  0.139E+01
   8.216  0.156E+01  0.137E+01
   8.226  0.150E+01  0.131E+01
   8.236  0.140E+01  0.121E+01
   8.246  0.125E+01  0.108E+01
   8.256  0.107E+01  0.927E+00
   8.266  0.895E+00  0.771E+00
   8.276  0.738E+00  0.633E+00
   8.286  0.633E+00  0.537E+00
   8.296  0.599E+00  0.500E+00
   8.306  0.648E+00  0.532E+00
   8.316  0.777E+00  0.629E+00
   8.326  0.969E+00  0.780E+00
   8.336  0.120E+01  0.962E+00
   8.346  0.143E+01  0.115E+01
   8.356  0.164E+01  0.133E+01
   8.366  0.182E+01  0.149E+01
   8.376  0.196E+01  0.162E+01
   8.386  0.209E+01  0.174E+01
   8.396  0.220E+01  0.187E+01
   8.406  0.233E+01  0.200E+01
   8.416  0.247E+01  0.213E+01
   8.426  0.260E+01  0.226E+01
   8.436  0.269E+01  0.234E+01
   8.446  0.273E+01  0.237E+01
   8.456  0.269E+01  0.232E+01
   8.466  0.256E+01  0.219E+01
   8.476  0.236E+01  0.199E+01
   8.486  0.212E+01  0.176E+01
   8.496  0.187E+01  0.152E+01
   8.506  0.163E+01  0.130E+01
   8.516  0.144E+01  0.113E+01
   8.526  0.130E+01  0.101E+01
   8.536  0.121E+01  0.942E+00
   8.546  0.117E+01  0.915E+00
   8.556  0.117E+01  0.916E+00
   8.566  0.118E+01  0.931E+00
   8.576  0.120E+01  0.950E+00
   8.586  0.122E+01  0.965E+00
   8.596  0.123E+01  0.971E+00
   8.606  0.123E+01  0.968E+00
   8.616  0.122E+01  0.955E+00
   8.626  0.120E+01  0.933E+00
   8.636  0.116E+01  0.901E+00
   8.646  0.110E+01  0.857E+00
   8.656  0.102E+01  0.798E+00
   8.666  0.920E+00  0.726E+00
   8.676  0.806E+00  0.641E+00
   8.686  0.684E+00  0.551E+00
   8.696  0.570E+00  0.467E+00
   8.706  0.479E+00  0.401E+00
   8.716  0.427E+00  0.368E+00
   8.726  0.424E+00  0.375E+00
   8.736  0.473E+00  0.425E+00
   8.746  0.565E+00  0.510E+00
   8.756  0.683E+00  0.616E+00
   8.766  0.807E+00  0.724E+00
   8.776  0.919E+00  0.816E+00
   8.786  0.101E+01  0.881E+00
   8.796  0.107E+01  0.915E+00
   8.806  0.112E+01  0.927E+00
   8.816  0.116E+01  0.925E+00
   8.826  0.121E+01  0.922E+00
   8.836  0.126E+01  0.921E+00
   8.846  0.131E+01  0.922E+00
   8.856  0.134E+01  0.918E+00
   8.866  0.133E+01  0.900E+00
   8.876  0.130E+01  0.866E+00
   8.886  0.123E+01  0.822E+00
   8.896  0.115E+01  0.780E+00
   8.906  0.108E+01  0.760E+00
   8.916  0.106E+01  0.777E+00
   8.926  0.110E+01  0.842E+00
   8.936  0.119E+01  0.953E+00
   8.946  0.132E+01  0.110E+01
   8.956  0.148E+01  0.125E+01
   8.966  0.163E+01  0.140E+01
   8.976  0.176E+01  0.152E+01
   8.986  0.186E+01  0.161E+01
   8.996  0.192E+01  0.167E+01
   9.006  0.197E+01  0.169E+01
   9.016  0.201E+01  0.171E+01
   9.026  0.206E+01  0.172E+01
   9.036  0.213E+01  0.174E+01
   9.046  0.220E+01  0.177E+01
   9.056  0.228E+01  0.180E+01
   9.066  0.235E+01  0.183E+01
   9.076  0.239E+01  0.184E+01
   9.086  0.240E+01  0.184E+01
   9.096  0.235E+01  0.180E+01
   9.106  0.226E+01  0.173E+01
   9.116  0.212E+01  0.163E+01
   9.126  0.195E+01  0.151E+01
   9.136  0.178E+01  0.138E+01
   9.146  0.162E+01  0.126E+01
   9.156  0.150E+01  0.117E+01
   9.166  0.145E+01  0.113E+01
   9.176  0.147E+01  0.115E+01
   9.186  0.157E+01  0.124E+01
   9.196  0.172E+01  0.137E+01
   9.206  0.190E+01  0.152E+01
   9.216  0.207E+01  0.168E+01
   9.226  0.220E+01  0.181E+01
   9.236  0.227E+01  0.189E+01
   9.246  0.226E+01  0.191E+01
   9.256  0.220E+01  0.187E+01
   9.266  0.208E+01  0.179E+01
   9.276  0.195E+01  0.169E+01
   9.286  0.183E+01  0.159E+01
   9.296  0.175E+01  0.151E+01
   9.306  0.170E+01  0.146E+01
   9.316  0.169E+01  0.143E+01
   9.326  0.170E+01  0.141E+01
   9.336  0.171E+01  0.140E+01
   9.346  0.171E+01  0.138E+01
   9.356  0.170E+01  0.136E+01
   9.366  0.167E+01  0.133E+01
   9.376  0.165E+01  0.130E+01
   9.386  0.165E+01  0.129E+01
   9.396  0.166E+01  0.130E+01
   9.406  0.167E+01  0.132E+01
   9.416  0.168E+01  0.133E+01
   9.426  0.167E+01  0.133E+01
   9.436  0.160E+01  0.129E+01
   9.446  0.148E+01  0.121E+01
   9.456  0.132E+01  0.110E+01
   9.466  0.114E+01  0.968E+00
   9.476  0.987E+00  0.849E+00
   9.486  0.894E+00  0.771E+00
   9.496  0.905E+00  0.764E+00
   9.506  0.104E+01  0.843E+00
   9.516  0.131E+01  0.101E+01
   9.526  0.168E+01  0.125E+01
   9.536  0.211E+01  0.153E+01
   9.546  0.252E+01  0.180E+01
   9.556  0.285E+01  0.201E+01
   9.566  0.303E+01  0.212E+01
   9.576  0.303E+01  0.211E+01
   9.586  0.286E+01  0.198E+01
   9.596  0.254E+01  0.176E+01
   9.606  0.213E+01  0.148E+01
   9.616  0.169E+01  0.118E+01
   9.626  0.128E+01  0.895E+00
   9.636  0.932E+00  0.659E+00
   9.646  0.672E+00  0.483E+00
   9.656  0.506E+00  0.372E+00
   9.666  0.429E+00  0.321E+00
   9.676  0.427E+00  0.322E+00
   9.686  0.485E+00  0.366E+00
   9.696  0.584E+00  0.439E+00
   9.706  0.705E+00  0.528E+00
   9.716  0.825E+00  0.618E+00
   9.726  0.927E+00  0.695E+00
   9.736  0.998E+00  0.751E+00
   9.746  0.103E+01  0.783E+00
   9.756  0.104E+01  0.794E+00
   9.766  0.103E+01  0.795E+00
   9.776  0.101E+01  0.796E+00
   9.786  0.101E+01  0.808E+00
   9.796  0.103E+01  0.835E+00
   9.806  0.108E+01  0.878E+00
   9.816  0.114E+01  0.933E+00
   9.826  0.121E+01  0.990E+00
   9.836  0.127E+01  0.104E+01
   9.846  0.133E+01  0.109E+01
   9.856  0.137E+01  0.112E+01
   9.866  0.138E+01  0.113E+01
   9.876  0.138E+01  0.113E+01
   9.886  0.137E+01  0.112E+01
   9.896  0.135E+01  0.110E+01
   9.906  0.135E+01  0.110E+01
   9.916  0.137E+01  0.111E+01
   9.926  0.144E+01  0.115E+01
   9.936  0.157E+01  0.124E+01
   9.946  0.175E+01  0.136E+01
   9.956  0.197E+01  0.150E+01
   9.966  0.219E+01  0.164E+01
   9.976  0.237E+01  0.176E+01
   9.986  0.248E+01  0.183E+01
   9.996  0.248E+01  0.182E+01
  10.006  0.236E+01  0.173E+01
  10.016  0.213E+01  0.156E+01
  10.026  0.183E+01  0.135E+01
  10.036  0.151E+01  0.111E+01
  10.046  0.122E+01  0.896E+00
  10.056  0.101E+01  0.727E+00
  10.066  0.909E+00  0.627E+00
  10.076  0.927E+00  0.600E+00
  10.086  0.105E+01  0.637E+00
  10.096  0.122E+01  0.716E+00
  10.106  0.141E+01  0.806E+00
  10.116  0.156E+01  0.879E+00
  10.126  0.163E+01  0.910E+00
  10.136  0.159E+01  0.886E+00
  10.146  0.145E+01  0.810E+00
  10.156  0.124E+01  0.693E+00
  10.166  0.989E+00  0.558E+00
  10.176  0.741E+00  0.426E+00
  10.186  0.531E+00  0.316E+00
  10.196  0.383E+00  0.241E+00
  10.206  0.309E+00  0.205E+00
  10.216  0.306E+00  0.209E+00
  10.226  0.371E+00  0.250E+00
  10.236  0.495E+00  0.327E+00
  10.246  0.671E+00  0.439E+00
  10.256  0.897E+00  0.588E+00
  10.266  0.117E+01  0.775E+00
  10.276  0.147E+01  0.994E+00
  10.286  0.179E+01  0.124E+01
  10.296  0.211E+01  0.149E+01
  10.306  0.240E+01  0.172E+01
  10.316  0.262E+01  0.190E+01
  10.326  0.274E+01  0.202E+01
  10.336  0.277E+01  0.206E+01
  10.346  0.268E+01  0.202E+01
  10.356  0.252E+01  0.192E+01
  10.366  0.230E+01  0.178E+01
  10.376  0.207E+01  0.162E+01
  10.386  0.186E+01  0.147E+01
  10.396  0.169E+01  0.135E+01
  10.406  0.156E+01  0.125E+01
  10.416  0.148E+01  0.118E+01
  10.426  0.143E+01  0.112E+01
  10.436  0.140E+01  0.107E+01
  10.446  0.139E+01  0.103E+01
  10.456  0.138E+01  0.987E+00
  10.466  0.138E+01  0.957E+00
  10.476  0.139E+01  0.941E+00
  10.486  0.142E+01  0.945E+00
  10.496  0.147E+01  0.967E+00
  10.506  0.152E+01  0.100E+01
  10.516  0.157E+01  0.105E+01
  10.526  0.162E+01  0.109E+01
  10.536  0.165E+01  0.112E+01
  10.546  0.166E+01  0.114E+01
  10.556  0.164E+01  0.113E+01
  10.566  0.158E+01  0.109E+01
  10.576  0.149E+01  0.103E+01
  10.586  0.136E+01  0.937E+00
  10.596  0.120E+01  0.827E+00
  10.606  0.103E+01  0.712E+00
  10.616  0.874E+00  0.610E+00
  10.626  0.758E+00  0.536E+00
  10.636  0.704E+00  0.506E+00
  10.646  0.728E+00  0.525E+00
  10.656  0.827E+00  0.590E+00
  10.666  0.986E+00  0.687E+00
  10.676  0.118E+01  0.798E+00
  10.686  0.137E+01  0.900E+00
  10.696  0.152E+01  0.973E+00
  10.706  0.161E+01  0.100E+01
  10.716  0.162E+01  0.984E+00
  10.726  0.155E+01  0.918E+00
  10.736  0.141E+01  0.816E+00
  10.746  0.122E+01  0.692E+00
  10.756  0.101E+01  0.569E+00
  10.766  0.829E+00  0.468E+00
  10.776  0.709E+00  0.411E+00
  10.786  0.680E+00  0.414E+00
  10.796  0.758E+00  0.486E+00
  10.806  0.940E+00  0.622E+00
  10.816  0.120E+01  0.807E+00
  10.826  0.150E+01  0.101E+01
  10.836  0.178E+01  0.120E+01
  10.846  0.199E+01  0.134E+01
  10.856  0.208E+01  0.140E+01
  10.866  0.204E+01  0.137E+01
  10.876  0.187E+01  0.125E+01
  10.886  0.159E+01  0.106E+01
  10.896  0.126E+01  0.837E+00
  10.906  0.915E+00  0.604E+00
  10.916  0.595E+00  0.391E+00
  10.926  0.330E+00  0.216E+00
  10.936  0.133E+00  0.873E-01
  10.946  0.434E-02  0.561E-02
  10.956 -0.614E-01 -0.338E-01
  10.966 -0.741E-01 -0.381E-01
  10.976 -0.431E-01 -0.140E-01
  10.986  0.248E-01  0.329E-01
  10.996  0.124E+00  0.989E-01
  11.006  0.251E+00  0.181E+00
  11.016  0.400E+00  0.278E+00
  11.026  0.563E+00  0.384E+00
  11.036  0.731E+00  0.497E+00
  11.046  0.891E+00  0.608E+00
  11.056  0.103E+01  0.711E+00
  11.066  0.114E+01  0.798E+00
  11.076  0.121E+01  0.861E+00
  11.086  0.123E+01  0.896E+00
  11.096  0.122E+01  0.902E+00
  11.106  0.119E+01  0.884E+00
  11.116  0.115E+01  0.852E+00
  11.126  0.111E+01  0.816E+00
  11.136  0.111E+01  0.790E+00
  11.146  0.114E+01  0.785E+00
  11.156  0.121E+01  0.805E+00
  11.166  0.131E+01  0.848E+00
  11.176  0.142E+01  0.902E+00
  11.186  0.151E+01  0.953E+00
  11.196  0.157E+01  0.984E+00
  11.206  0.157E+01  0.982E+00
  11.216  0.151E+01  0.938E+00
  11.226  0.139E+01  0.856E+00
  11.236  0.122E+01  0.742E+00
  11.246  0.102E+01  0.610E+00
  11.256  0.825E+00  0.476E+00
  11.266  0.651E+00  0.356E+00
  11.276  0.521E+00  0.263E+00
  11.286  0.450E+00  0.206E+00
  11.296  0.448E+00  0.193E+00
  11.306  0.515E+00  0.226E+00
  11.316  0.646E+00  0.304E+00
  11.326  0.826E+00  0.421E+00
  11.336  0.103E+01  0.564E+00
  11.346  0.124E+01  0.719E+00
  11.356  0.142E+01  0.867E+00
  11.366  0.155E+01  0.989E+00
  11.376  0.161E+01  0.107E+01
  11.386  0.160E+01  0.110E+01
  11.396  0.153E+01  0.108E+01
  11.406  0.140E+01  0.102E+01
  11.416  0.124E+01  0.929E+00
  11.426  0.109E+01  0.827E+00
  11.436  0.951E+00  0.736E+00
  11.446  0.863E+00  0.672E+00
  11.456  0.836E+00  0.648E+00
  11.466  0.873E+00  0.669E+00
  11.476  0.972E+00  0.731E+00
  11.486  0.112E+01  0.824E+00
  11.496  0.128E+01  0.933E+00
  11.506  0.145E+01  0.104E+01
  11.516  0.159E+01  0.113E+01
  11.526  0.169E+01  0.118E+01
  11.536  0.173E+01  0.120E+01
  11.546  0.171E+01  0.117E+01
  11.556  0.164E+01  0.112E+01
  11.566  0.153E+01  0.104E+01
  11.576  0.142E+01  0.948E+00
  11.586  0.131E+01  0.866E+00
  11.596  0.122E+01  0.799E+00
  11.606  0.115E+01  0.750E+00
  11.616  0.110E+01  0.716E+00
  11.626  0.106E+01  0.688E+00
  11.636  0.101E+01  0.659E+00
  11.646  0.944E+00  0.624E+00
  11.656  0.871E+00  0.583E+00
  11.666  0.802E+00  0.545E+00
  11.676  0.759E+00  0.523E+00
  11.686  0.766E+00  0.535E+00
  11.696  0.847E+00  0.595E+00
  11.706  0.101E+01  0.711E+00
  11.716  0.126E+01  0.882E+00
  11.726  0.157E+01  0.109E+01
  11.736  0.191E+01  0.132E+01
  11.746  0.223E+01  0.153E+01
  11.756  0.249E+01  0.169E+01
  11.766  0.266E+01  0.179E+01
  11.776  0.273E+01  0.181E+01
  11.786  0.268E+01  0.175E+01
  11.796  0.255E+01  0.164E+01
  11.806  0.235E+01  0.148E+01
  11.816  0.211E+01  0.130E+01
  11.826  0.186E+01  0.111E+01
  11.836  0.163E+01  0.943E+00
  11.846  0.141E+01  0.792E+00
  11.856  0.122E+01  0.663E+00
  11.866  0.105E+01  0.556E+00
  11.876  0.906E+00  0.470E+00
  11.886  0.786E+00  0.406E+00
  11.896  0.693E+00  0.367E+00
  11.906  0.635E+00  0.354E+00
  11.916  0.618E+00  0.371E+00
  11.926  0.643E+00  0.415E+00
  11.936  0.708E+00  0.483E+00
  11.946  0.802E+00  0.562E+00
  11.956  0.909E+00  0.640E+00
  11.966  0.101E+01  0.704E+00
  11.976  0.110E+01  0.744E+00
  11.986  0.115E+01  0.752E+00
  11.996  0.116E+01  0.729E+00
  12.006  0.114E+01  0.680E+00
  12.016  0.108E+01  0.610E+00
  12.026  0.996E+00  0.528E+00
  12.036  0.881E+00  0.440E+00
  12.046  0.744E+00  0.350E+00
  12.056  0.593E+00  0.263E+00
  12.066  0.437E+00  0.181E+00
  12.076  0.287E+00  0.107E+00
  12.086  0.154E+00  0.452E-01
  12.096  0.508E-01 -0.203E-02
  12.106 -0.144E-01 -0.307E-01
  12.116 -0.337E-01 -0.371E-01
  12.126 -0.153E-02 -0.170E-01
  12.136  0.854E-01  0.333E-01
  12.146  0.228E+00  0.116E+00
  12.156  0.422E+00  0.233E+00
  12.166  0.657E+00  0.378E+00
  12.176  0.918E+00  0.542E+00
  12.186  0.118E+01  0.712E+00
  12.196  0.141E+01  0.866E+00
  12.206  0.159E+01  0.985E+00
  12.216  0.168E+01  0.105E+01
  12.226  0.166E+01  0.105E+01
  12.236  0.155E+01  0.988E+00
  12.246  0.136E+01  0.867E+00
  12.256  0.110E+01  0.705E+00
  12.266  0.816E+00  0.526E+00
  12.276  0.543E+00  0.352E+00
  12.286  0.306E+00  0.202E+00
  12.296  0.124E+00  0.868E-01
  12.306  0.491E-02  0.132E-01
  12.316 -0.529E-01 -0.203E-01
  12.326 -0.559E-01 -0.187E-01
  12.336 -0.132E-01  0.108E-01
  12.346  0.672E-01  0.612E-01
  12.356  0.179E+00  0.127E+00
  12.366  0.320E+00  0.203E+00
  12.376  0.487E+00  0.288E+00
  12.386  0.675E+00  0.380E+00
  12.396  0.879E+00  0.478E+00
  12.406  0.109E+01  0.577E+00
  12.416  0.128E+01  0.674E+00
  12.426  0.145E+01  0.762E+00
  12.436  0.158E+01  0.832E+00
  12.446  0.165E+01  0.880E+00
  12.456  0.167E+01  0.900E+00
  12.466  0.164E+01  0.893E+00
  12.476  0.158E+01  0.861E+00
  12.486  0.149E+01  0.808E+00
  12.496  0.138E+01  0.741E+00
  12.506  0.127E+01  0.667E+00
  12.516  0.116E+01  0.590E+00
  12.526  0.105E+01  0.516E+00
  12.536  0.932E+00  0.447E+00
  12.546  0.820E+00  0.386E+00
  12.556  0.711E+00  0.333E+00
  12.566  0.608E+00  0.287E+00
  12.576  0.510E+00  0.246E+00
  12.586  0.419E+00  0.208E+00
  12.596  0.332E+00  0.171E+00
  12.606  0.251E+00  0.134E+00
  12.616  0.174E+00  0.959E-01
  12.626  0.102E+00  0.588E-01
  12.636  0.385E-01  0.241E-01
  12.646 -0.150E-01 -0.588E-02
  12.656 -0.554E-01 -0.289E-01
  12.666 -0.790E-01 -0.425E-01
  12.676 -0.811E-01 -0.437E-01
  12.686 -0.561E-01 -0.292E-01
  12.696  0.196E-02  0.423E-02
  12.706  0.979E-01  0.592E-01
  12.716  0.234E+00  0.136E+00
  12.726  0.406E+00  0.234E+00
  12.736  0.607E+00  0.349E+00
  12.746  0.824E+00  0.472E+00
  12.756  0.104E+01  0.596E+00
  12.766  0.124E+01  0.714E+00
  12.776  0.141E+01  0.817E+00
  12.786  0.154E+01  0.902E+00
  12.796  0.163E+01  0.965E+00
  12.806  0.167E+01  0.100E+01
  12.816  0.167E+01  0.101E+01
  12.826  0.163E+01  0.997E+00
  12.836  0.154E+01  0.953E+00
  12.846  0.142E+01  0.883E+00
  12.856  0.127E+01  0.796E+00
  12.866  0.110E+01  0.700E+00
  12.876  0.941E+00  0.607E+00
  12.886  0.801E+00  0.529E+00
  12.896  0.698E+00  0.475E+00
  12.906  0.642E+00  0.448E+00
  12.916  0.633E+00  0.450E+00
  12.926  0.667E+00  0.474E+00
  12.936  0.729E+00  0.513E+00
  12.946  0.802E+00  0.553E+00
  12.956  0.863E+00  0.583E+00
  12.966  0.895E+00  0.593E+00
  12.976  0.882E+00  0.574E+00
  12.986  0.820E+00  0.526E+00
  12.996  0.713E+00  0.450E+00
  13.006  0.572E+00  0.356E+00
  13.016  0.414E+00  0.254E+00
  13.026  0.259E+00  0.155E+00
  13.036  0.123E+00  0.698E-01
  13.046  0.198E-01  0.624E-02
  13.056 -0.420E-01 -0.306E-01
  13.066 -0.583E-01 -0.383E-01
  13.076 -0.281E-01 -0.161E-01
  13.086  0.481E-01  0.356E-01
  13.096  0.169E+00  0.116E+00
  13.106  0.331E+00  0.222E+00
  13.116  0.533E+00  0.353E+00
  13.126  0.769E+00  0.506E+00
  13.136  0.103E+01  0.674E+00
  13.146  0.131E+01  0.852E+00
  13.156  0.159E+01  0.103E+01
  13.166  0.185E+01  0.119E+01
  13.176  0.207E+01  0.132E+01
  13.186  0.221E+01  0.141E+01
  13.196  0.227E+01  0.146E+01
  13.206  0.225E+01  0.145E+01
  13.216  0.216E+01  0.139E+01
  13.226  0.200E+01  0.130E+01
  13.236  0.182E+01  0.120E+01
  13.246  0.163E+01  0.109E+01
  13.256  0.145E+01  0.987E+00
  13.266  0.129E+01  0.892E+00
  13.276  0.115E+01  0.803E+00
  13.286  0.102E+01  0.719E+00
  13.296  0.895E+00  0.638E+00
  13.306  0.779E+00  0.558E+00
  13.316  0.669E+00  0.481E+00
  13.326  0.566E+00  0.407E+00
  13.336  0.471E+00  0.339E+00
  13.346  0.383E+00  0.276E+00
  13.356  0.303E+00  0.219E+00
  13.366  0.229E+00  0.166E+00
  13.376  0.163E+00  0.119E+00
  13.386  0.106E+00  0.772E-01
  13.396  0.574E-01  0.427E-01
  13.406  0.199E-01  0.161E-01
  13.416 -0.650E-02 -0.263E-02
  13.426 -0.228E-01 -0.140E-01
  13.436 -0.307E-01 -0.194E-01
  13.446 -0.321E-01 -0.206E-01
  13.456 -0.288E-01 -0.189E-01
  13.466 -0.220E-01 -0.156E-01
  13.476 -0.119E-01 -0.111E-01
  13.486  0.158E-02 -0.541E-02
  13.496  0.189E-01  0.172E-02
  13.506  0.401E-01  0.107E-01
  13.516  0.649E-01  0.215E-01
  13.526  0.921E-01  0.338E-01
  13.536  0.120E+00  0.468E-01
  13.546  0.145E+00  0.589E-01
  13.556  0.165E+00  0.687E-01
  13.566  0.179E+00  0.750E-01
  13.576  0.186E+00  0.771E-01
  13.586  0.189E+00  0.758E-01
  13.596  0.190E+00  0.727E-01
  13.606  0.196E+00  0.707E-01
  13.616  0.215E+00  0.730E-01
  13.626  0.252E+00  0.822E-01
  13.636  0.309E+00  0.995E-01
  13.646  0.383E+00  0.124E+00
  13.656  0.467E+00  0.153E+00
  13.666  0.547E+00  0.182E+00
  13.676  0.609E+00  0.205E+00
  13.686  0.643E+00  0.219E+00
  13.696  0.646E+00  0.222E+00
  13.706  0.621E+00  0.217E+00
  13.716  0.581E+00  0.208E+00
  13.726  0.543E+00  0.200E+00
  13.736  0.522E+00  0.199E+00
  13.746  0.525E+00  0.207E+00
  13.756  0.553E+00  0.224E+00
  13.766  0.595E+00  0.244E+00
  13.776  0.634E+00  0.262E+00
  13.786  0.655E+00  0.270E+00
  13.796  0.642E+00  0.263E+00
  13.806  0.592E+00  0.241E+00
  13.816  0.508E+00  0.205E+00
  13.826  0.401E+00  0.161E+00
  13.836  0.286E+00  0.113E+00
  13.846  0.178E+00  0.680E-01
  13.856  0.856E-01  0.303E-01
  13.866  0.167E-01  0.201E-02
  13.876 -0.275E-01 -0.160E-01
  13.886 -0.485E-01 -0.239E-01
  13.896 -0.490E-01 -0.224E-01
  13.906 -0.315E-01 -0.119E-01
  13.916  0.179E-02  0.736E-02
  13.926  0.489E-01  0.348E-01
  13.936  0.107E+00  0.690E-01
  13.946  0.171E+00  0.107E+00
  13.956  0.235E+00  0.146E+00
  13.966  0.290E+00  0.179E+00
  13.976  0.328E+00  0.203E+00
  13.986  0.344E+00  0.212E+00
  13.996  0.336E+00  0.207E+00
  14.006  0.304E+00  0.187E+00
  14.016  0.254E+00  0.156E+00
  14.026  0.194E+00  0.119E+00
  14.036  0.133E+00  0.816E-01
  14.046  0.780E-01  0.472E-01
  14.056  0.330E-01  0.190E-01
  14.066  0.309E-03 -0.153E-02
  14.076 -0.204E-01 -0.146E-01
  14.086 -0.306E-01 -0.210E-01
  14.096 -0.325E-01 -0.217E-01
  14.106 -0.275E-01 -0.175E-01
  14.116 -0.167E-01 -0.863E-02
  14.126 -0.324E-03  0.478E-02
  14.136  0.217E-01  0.229E-01
  14.146  0.502E-01  0.460E-01
  14.156  0.863E-01  0.744E-01
  14.166  0.132E+00  0.109E+00
  14.176  0.188E+00  0.151E+00
  14.186  0.258E+00  0.200E+00
  14.196  0.340E+00  0.256E+00
  14.206  0.432E+00  0.319E+00
  14.216  0.527E+00  0.382E+00
  14.226  0.614E+00  0.440E+00
  14.236  0.681E+00  0.483E+00
  14.246  0.715E+00  0.504E+00
  14.256  0.709E+00  0.497E+00
  14.266  0.660E+00  0.461E+00
  14.276  0.574E+00  0.400E+00
  14.286  0.462E+00  0.321E+00
  14.296  0.340E+00  0.236E+00
  14.306  0.223E+00  0.154E+00
  14.316  0.122E+00  0.839E-01
  14.326  0.430E-01  0.290E-01
  14.336 -0.121E-01 -0.950E-02
  14.346 -0.458E-01 -0.332E-01
  14.356 -0.624E-01 -0.449E-01
  14.366 -0.658E-01 -0.474E-01
  14.376 -0.580E-01 -0.418E-01
  14.386 -0.390E-01 -0.278E-01
  14.396 -0.671E-02 -0.387E-02
  14.406  0.410E-01  0.317E-01
  14.416  0.105E+00  0.797E-01
  14.426  0.183E+00  0.138E+00
  14.436  0.269E+00  0.203E+00
  14.446  0.354E+00  0.267E+00
  14.456  0.427E+00  0.322E+00
  14.466  0.479E+00  0.360E+00
  14.476  0.502E+00  0.377E+00
  14.486  0.499E+00  0.372E+00
  14.496  0.473E+00  0.350E+00
  14.506  0.436E+00  0.318E+00
  14.516  0.399E+00  0.283E+00
  14.526  0.369E+00  0.255E+00
  14.536  0.353E+00  0.236E+00
  14.546  0.348E+00  0.227E+00
  14.556  0.351E+00  0.226E+00
  14.566  0.355E+00  0.229E+00
  14.576  0.353E+00  0.231E+00
  14.586  0.342E+00  0.229E+00
  14.596  0.321E+00  0.221E+00
  14.606  0.291E+00  0.208E+00
  14.616  0.256E+00  0.190E+00
  14.626  0.219E+00  0.169E+00
  14.636  0.185E+00  0.148E+00
  14.646  0.157E+00  0.130E+00
  14.656  0.141E+00  0.117E+00
  14.666  0.139E+00  0.113E+00
  14.676  0.153E+00  0.119E+00
  14.686  0.182E+00  0.137E+00
  14.696  0.223E+00  0.163E+00
  14.706  0.271E+00  0.195E+00
  14.716  0.321E+00  0.228E+00
  14.726  0.366E+00  0.259E+00
  14.736  0.402E+00  0.283E+00
  14.746  0.428E+00  0.301E+00
  14.756  0.444E+00  0.311E+00
  14.766  0.448E+00  0.313E+00
  14.776  0.442E+00  0.307E+00
  14.786  0.424E+00  0.294E+00
  14.796  0.393E+00  0.272E+00
  14.806  0.350E+00  0.241E+00
  14.816  0.296E+00  0.204E+00
  14.826  0.236E+00  0.162E+00
  14.836  0.173E+00  0.119E+00
  14.846  0.115E+00  0.790E-01
  14.856  0.654E-01  0.448E-01
  14.866  0.272E-01  0.185E-01
  14.876  0.128E-02  0.733E-03
  14.886 -0.136E-01 -0.948E-02
  14.896 -0.199E-01 -0.138E-01
  14.906 -0.203E-01 -0.140E-01
  14.916 -0.175E-01 -0.121E-01
  14.926 -0.135E-01 -0.932E-02
  14.936 -0.955E-02 -0.658E-02
  14.946 -0.626E-02 -0.432E-02
  14.956 -0.385E-02 -0.265E-02
  14.966 -0.222E-02 -0.153E-02
  14.976 -0.121E-02 -0.835E-03
  14.986 -0.625E-03 -0.431E-03
  14.996 -0.306E-03 -0.211E-03
  15.006 -0.142E-03 -0.981E-04
  15.016 -0.629E-04 -0.433E-04
  15.026 -0.264E-04 -0.182E-04
  15.036 -0.106E-04 -0.730E-05
  15.046 -0.404E-05 -0.279E-05
  15.056 -0.147E-05 -0.101E-05
  15.066 -0.510E-06 -0.352E-06
  15.076 -0.169E-06 -0.116E-06
  15.086 -0.534E-07 -0.368E-07
  15.096 -0.161E-07 -0.111E-07
  15.106 -0.465E-08 -0.320E-08
  15.116 -0.128E-08 -0.882E-09
  15.126 -0.336E-09 -0.232E-09
  15.136 -0.846E-10 -0.583E-10
  15.146 -0.203E-10 -0.140E-10
  15.156  0.000E+00  0.000E+00
  15.166  0.000E+00  0.000E+00
  15.176  0.000E+00  0.000E+00
  15.186  0.000E+00  0.000E+00
  15.196  0.000E+00  0.000E+00
  15.206  0.000E+00  0.000E+00
  15.216  0.000E+00  0.000E+00
  15.226  0.000E+00  0.000E+00
  15.236  0.000E+00  0.000E+00
  15.246  0.000E+00  0.000E+00
  15.256  0.000E+00  0.000E+00
  15.266  0.000E+00  0.000E+00
  15.276  0.000E+00  0.000E+00
  15.286  0.000E+00  0.000E+00
  15.296  0.000E+00  0.000E+00
  15.306  0.000E+00  0.000E+00
  15.316 -0.630E-11 -0.584E-11
  15.326 -0.260E-10 -0.241E-10
  15.336 -0.103E-09 -0.954E-10
  15.346 -0.389E-09 -0.360E-09
  15.356 -0.140E-08 -0.130E-08
  15.366 -0.483E-08 -0.448E-08
  15.376 -0.159E-07 -0.147E-07
  15.386 -0.499E-07 -0.463E-07
  15.396 -0.150E-06 -0.139E-06
  15.406 -0.428E-06 -0.397E-06
  15.416 -0.117E-05 -0.108E-05
  15.426 -0.304E-05 -0.282E-05
  15.436 -0.754E-05 -0.699E-05
  15.446 -0.178E-04 -0.165E-04
  15.456 -0.399E-04 -0.370E-04
  15.466 -0.852E-04 -0.790E-04
  15.476 -0.173E-03 -0.160E-03
  15.486 -0.331E-03 -0.307E-03
  15.496 -0.601E-03 -0.557E-03
  15.506 -0.103E-02 -0.953E-03
  15.516 -0.165E-02 -0.153E-02
  15.526 -0.248E-02 -0.229E-02
  15.536 -0.343E-02 -0.318E-02
  15.546 -0.430E-02 -0.399E-02
  15.556 -0.473E-02 -0.438E-02
  15.566 -0.413E-02 -0.383E-02
  15.576 -0.181E-02 -0.168E-02
  15.586  0.298E-02  0.276E-02
  15.596  0.108E-01  0.100E-01
  15.606  0.217E-01  0.202E-01
  15.616  0.353E-01  0.328E-01
  15.626  0.504E-01  0.467E-01
  15.636  0.649E-01  0.602E-01
  15.646  0.770E-01  0.714E-01
  15.656  0.845E-01  0.783E-01
  15.666  0.862E-01  0.800E-01
  15.676  0.819E-01  0.759E-01
  15.686  0.722E-01  0.669E-01
  15.696  0.588E-01  0.545E-01
  15.706  0.437E-01  0.406E-01
  15.716  0.292E-01  0.270E-01
  15.726  0.166E-01  0.154E-01
  15.736  0.699E-02  0.648E-02
  15.746  0.544E-03  0.504E-03
  15.756 -0.309E-02 -0.286E-02
  15.766 -0.456E-02 -0.423E-02
  15.776 -0.463E-02 -0.429E-02
  15.786 -0.395E-02 -0.366E-02
  15.796 -0.300E-02 -0.279E-02
  15.806 -0.209E-02 -0.194E-02
  15.816 -0.135E-02 -0.126E-02
  15.826 -0.820E-03 -0.760E-03
  15.836 -0.467E-03 -0.433E-03
  15.846 -0.251E-03 -0.233E-03
  15.856 -0.128E-03 -0.118E-03
  15.866 -0.616E-04 -0.571E-04
  15.876 -0.282E-04 -0.262E-04
