# E (eV)   ldos(E)   pdos(E)   
  -6.084 -0.443E-05 -0.443E-05
  -6.074 -0.928E-05 -0.928E-05
  -6.064 -0.184E-04 -0.184E-04
  -6.054 -0.347E-04 -0.347E-04
  -6.044 -0.619E-04 -0.619E-04
  -6.034 -0.104E-03 -0.104E-03
  -6.024 -0.164E-03 -0.164E-03
  -6.014 -0.242E-03 -0.242E-03
  -6.004 -0.332E-03 -0.332E-03
  -5.994 -0.418E-03 -0.418E-03
  -5.984 -0.472E-03 -0.472E-03
  -5.974 -0.461E-03 -0.461E-03
  -5.964 -0.349E-03 -0.349E-03
  -5.954 -0.114E-03 -0.114E-03
  -5.944  0.239E-03  0.239E-03
  -5.934  0.672E-03  0.672E-03
  -5.924  0.112E-02  0.112E-02
  -5.914  0.152E-02  0.152E-02
  -5.904  0.188E-02  0.188E-02
  -5.894  0.236E-02  0.236E-02
  -5.884  0.328E-02  0.328E-02
  -5.874  0.517E-02  0.517E-02
  -5.864  0.870E-02  0.870E-02
  -5.854  0.145E-01  0.145E-01
  -5.844  0.229E-01  0.229E-01
  -5.834  0.338E-01  0.338E-01
  -5.824  0.466E-01  0.466E-01
  -5.814  0.598E-01  0.598E-01
  -5.804  0.718E-01  0.718E-01
  -5.794  0.808E-01  0.808E-01
  -5.784  0.851E-01  0.851E-01
  -5.774  0.839E-01  0.839E-01
  -5.764  0.776E-01  0.776E-01
  -5.754  0.670E-01  0.670E-01
  -5.744  0.542E-01  0.542E-01
  -5.734  0.416E-01  0.416E-01
  -5.724  0.313E-01  0.313E-01
  -5.714  0.251E-01  0.251E-01
  -5.704  0.239E-01  0.239E-01
  -5.694  0.276E-01  0.276E-01
  -5.684  0.350E-01  0.350E-01
  -5.674  0.443E-01  0.443E-01
  -5.664  0.537E-01  0.537E-01
  -5.654  0.620E-01  0.620E-01
  -5.644  0.688E-01  0.688E-01
  -5.634  0.750E-01  0.750E-01
  -5.624  0.822E-01  0.822E-01
  -5.614  0.922E-01  0.922E-01
  -5.604  0.106E+00  0.106E+00
  -5.594  0.124E+00  0.124E+00
  -5.584  0.145E+00  0.145E+00
  -5.574  0.164E+00  0.164E+00
  -5.564  0.178E+00  0.178E+00
  -5.554  0.185E+00  0.185E+00
  -5.544  0.180E+00  0.180E+00
  -5.534  0.165E+00  0.165E+00
  -5.524  0.142E+00  0.142E+00
  -5.514  0.113E+00  0.113E+00
  -5.504  0.826E-01  0.826E-01
  -5.494  0.548E-01  0.548E-01
  -5.484  0.322E-01  0.322E-01
  -5.474  0.164E-01  0.164E-01
  -5.464  0.725E-02  0.725E-02
  -5.454  0.388E-02  0.388E-02
  -5.444  0.471E-02  0.471E-02
  -5.434  0.820E-02  0.820E-02
  -5.424  0.134E-01  0.134E-01
  -5.414  0.202E-01  0.202E-01
  -5.404  0.293E-01  0.293E-01
  -5.394  0.424E-01  0.424E-01
  -5.384  0.610E-01  0.610E-01
  -5.374  0.860E-01  0.860E-01
  -5.364  0.117E+00  0.117E+00
  -5.354  0.152E+00  0.152E+00
  -5.344  0.187E+00  0.187E+00
  -5.334  0.218E+00  0.218E+00
  -5.324  0.239E+00  0.239E+00
  -5.314  0.247E+00  0.247E+00
  -5.304  0.240E+00  0.240E+00
  -5.294  0.220E+00  0.220E+00
  -5.284  0.189E+00  0.189E+00
  -5.274  0.153E+00  0.153E+00
  -5.264  0.119E+00  0.119E+00
  -5.254  0.910E-01  0.910E-01
  -5.244  0.736E-01  0.736E-01
  -5.234  0.678E-01  0.678E-01
  -5.224  0.722E-01  0.722E-01
  -5.214  0.836E-01  0.836E-01
  -5.204  0.978E-01  0.978E-01
  -5.194  0.111E+00  0.111E+00
  -5.184  0.121E+00  0.121E+00
  -5.174  0.127E+00  0.127E+00
  -5.164  0.131E+00  0.131E+00
  -5.154  0.134E+00  0.134E+00
  -5.144  0.139E+00  0.139E+00
  -5.134  0.147E+00  0.147E+00
  -5.124  0.156E+00  0.156E+00
  -5.114  0.165E+00  0.165E+00
  -5.104  0.170E+00  0.170E+00
  -5.094  0.167E+00  0.167E+00
  -5.084  0.156E+00  0.156E+00
  -5.074  0.136E+00  0.136E+00
  -5.064  0.110E+00  0.110E+00
  -5.054  0.822E-01  0.822E-01
  -5.044  0.556E-01  0.556E-01
  -5.034  0.341E-01  0.341E-01
  -5.024  0.197E-01  0.197E-01
  -5.014  0.126E-01  0.126E-01
  -5.004  0.121E-01  0.121E-01
  -4.994  0.162E-01  0.162E-01
  -4.984  0.231E-01  0.231E-01
  -4.974  0.317E-01  0.317E-01
  -4.964  0.422E-01  0.422E-01
  -4.954  0.562E-01  0.562E-01
  -4.944  0.765E-01  0.765E-01
  -4.934  0.106E+00  0.106E+00
  -4.924  0.145E+00  0.145E+00
  -4.914  0.195E+00  0.195E+00
  -4.904  0.250E+00  0.250E+00
  -4.894  0.304E+00  0.304E+00
  -4.884  0.350E+00  0.350E+00
  -4.874  0.378E+00  0.378E+00
  -4.864  0.385E+00  0.385E+00
  -4.854  0.367E+00  0.367E+00
  -4.844  0.327E+00  0.327E+00
  -4.834  0.271E+00  0.271E+00
  -4.824  0.209E+00  0.209E+00
  -4.814  0.147E+00  0.147E+00
  -4.804  0.953E-01  0.953E-01
  -4.794  0.579E-01  0.579E-01
  -4.784  0.374E-01  0.374E-01
  -4.774  0.333E-01  0.333E-01
  -4.764  0.430E-01  0.430E-01
  -4.754  0.623E-01  0.623E-01
  -4.744  0.870E-01  0.870E-01
  -4.734  0.113E+00  0.113E+00
  -4.724  0.137E+00  0.137E+00
  -4.714  0.159E+00  0.159E+00
  -4.704  0.176E+00  0.176E+00
  -4.694  0.189E+00  0.189E+00
  -4.684  0.199E+00  0.199E+00
  -4.674  0.206E+00  0.206E+00
  -4.664  0.210E+00  0.210E+00
  -4.654  0.210E+00  0.210E+00
  -4.644  0.205E+00  0.205E+00
  -4.634  0.195E+00  0.195E+00
  -4.624  0.180E+00  0.180E+00
  -4.614  0.161E+00  0.161E+00
  -4.604  0.139E+00  0.139E+00
  -4.594  0.116E+00  0.116E+00
  -4.584  0.938E-01  0.938E-01
  -4.574  0.733E-01  0.733E-01
  -4.564  0.554E-01  0.554E-01
  -4.554  0.406E-01  0.406E-01
  -4.544  0.288E-01  0.288E-01
  -4.534  0.206E-01  0.206E-01
  -4.524  0.169E-01  0.169E-01
  -4.514  0.194E-01  0.194E-01
  -4.504  0.297E-01  0.297E-01
  -4.494  0.495E-01  0.495E-01
  -4.484  0.793E-01  0.793E-01
  -4.474  0.118E+00  0.118E+00
  -4.464  0.163E+00  0.163E+00
  -4.454  0.209E+00  0.209E+00
  -4.444  0.252E+00  0.252E+00
  -4.434  0.284E+00  0.284E+00
  -4.424  0.303E+00  0.303E+00
  -4.414  0.305E+00  0.305E+00
  -4.404  0.294E+00  0.294E+00
  -4.394  0.273E+00  0.273E+00
  -4.384  0.248E+00  0.248E+00
  -4.374  0.228E+00  0.228E+00
  -4.364  0.215E+00  0.215E+00
  -4.354  0.214E+00  0.214E+00
  -4.344  0.224E+00  0.224E+00
  -4.334  0.239E+00  0.239E+00
  -4.324  0.257E+00  0.257E+00
  -4.314  0.270E+00  0.270E+00
  -4.304  0.277E+00  0.277E+00
  -4.294  0.277E+00  0.277E+00
  -4.284  0.271E+00  0.271E+00
  -4.274  0.264E+00  0.264E+00
  -4.264  0.258E+00  0.258E+00
  -4.254  0.256E+00  0.256E+00
  -4.244  0.258E+00  0.258E+00
  -4.234  0.261E+00  0.261E+00
  -4.224  0.261E+00  0.261E+00
  -4.214  0.254E+00  0.254E+00
  -4.204  0.238E+00  0.238E+00
  -4.194  0.211E+00  0.211E+00
  -4.184  0.175E+00  0.175E+00
  -4.174  0.133E+00  0.133E+00
  -4.164  0.912E-01  0.912E-01
  -4.154  0.547E-01  0.547E-01
  -4.144  0.286E-01  0.286E-01
  -4.134  0.162E-01  0.162E-01
  -4.124  0.190E-01  0.190E-01
  -4.114  0.366E-01  0.366E-01
  -4.104  0.665E-01  0.665E-01
  -4.094  0.105E+00  0.105E+00
  -4.084  0.146E+00  0.146E+00
  -4.074  0.185E+00  0.185E+00
  -4.064  0.215E+00  0.215E+00
  -4.054  0.234E+00  0.234E+00
  -4.044  0.238E+00  0.238E+00
  -4.034  0.228E+00  0.228E+00
  -4.024  0.208E+00  0.208E+00
  -4.014  0.183E+00  0.183E+00
  -4.004  0.158E+00  0.158E+00
  -3.994  0.139E+00  0.139E+00
  -3.984  0.127E+00  0.127E+00
  -3.974  0.125E+00  0.125E+00
  -3.964  0.130E+00  0.130E+00
  -3.954  0.139E+00  0.139E+00
  -3.944  0.150E+00  0.150E+00
  -3.934  0.161E+00  0.161E+00
  -3.924  0.173E+00  0.173E+00
  -3.914  0.189E+00  0.189E+00
  -3.904  0.212E+00  0.212E+00
  -3.894  0.244E+00  0.244E+00
  -3.884  0.285E+00  0.285E+00
  -3.874  0.332E+00  0.332E+00
  -3.864  0.379E+00  0.379E+00
  -3.854  0.415E+00  0.415E+00
  -3.844  0.434E+00  0.434E+00
  -3.834  0.430E+00  0.430E+00
  -3.824  0.402E+00  0.402E+00
  -3.814  0.355E+00  0.355E+00
  -3.804  0.299E+00  0.299E+00
  -3.794  0.245E+00  0.245E+00
  -3.784  0.205E+00  0.205E+00
  -3.774  0.188E+00  0.188E+00
  -3.764  0.195E+00  0.195E+00
  -3.754  0.224E+00  0.224E+00
  -3.744  0.266E+00  0.266E+00
  -3.734  0.311E+00  0.311E+00
  -3.724  0.348E+00  0.348E+00
  -3.714  0.370E+00  0.370E+00
  -3.704  0.375E+00  0.375E+00
  -3.694  0.364E+00  0.364E+00
  -3.684  0.346E+00  0.346E+00
  -3.674  0.328E+00  0.328E+00
  -3.664  0.317E+00  0.317E+00
  -3.654  0.318E+00  0.318E+00
  -3.644  0.330E+00  0.330E+00
  -3.634  0.349E+00  0.349E+00
  -3.624  0.368E+00  0.368E+00
  -3.614  0.380E+00  0.380E+00
  -3.604  0.378E+00  0.378E+00
  -3.594  0.359E+00  0.359E+00
  -3.584  0.326E+00  0.326E+00
  -3.574  0.283E+00  0.283E+00
  -3.564  0.239E+00  0.239E+00
  -3.554  0.200E+00  0.200E+00
  -3.544  0.172E+00  0.172E+00
  -3.534  0.156E+00  0.156E+00
  -3.524  0.152E+00  0.152E+00
  -3.514  0.156E+00  0.156E+00
  -3.504  0.161E+00  0.161E+00
  -3.494  0.165E+00  0.165E+00
  -3.484  0.163E+00  0.163E+00
  -3.474  0.157E+00  0.157E+00
  -3.464  0.149E+00  0.149E+00
  -3.454  0.144E+00  0.144E+00
  -3.444  0.146E+00  0.146E+00
  -3.434  0.159E+00  0.159E+00
  -3.424  0.184E+00  0.184E+00
  -3.414  0.222E+00  0.222E+00
  -3.404  0.268E+00  0.268E+00
  -3.394  0.315E+00  0.315E+00
  -3.384  0.358E+00  0.358E+00
  -3.374  0.390E+00  0.390E+00
  -3.364  0.407E+00  0.407E+00
  -3.354  0.410E+00  0.410E+00
  -3.344  0.401E+00  0.401E+00
  -3.334  0.388E+00  0.388E+00
  -3.324  0.379E+00  0.379E+00
  -3.314  0.378E+00  0.378E+00
  -3.304  0.389E+00  0.389E+00
  -3.294  0.412E+00  0.412E+00
  -3.284  0.440E+00  0.440E+00
  -3.274  0.466E+00  0.466E+00
  -3.264  0.478E+00  0.478E+00
  -3.254  0.471E+00  0.471E+00
  -3.244  0.440E+00  0.440E+00
  -3.234  0.389E+00  0.389E+00
  -3.224  0.323E+00  0.323E+00
  -3.214  0.254E+00  0.254E+00
  -3.204  0.192E+00  0.192E+00
  -3.194  0.147E+00  0.147E+00
  -3.184  0.123E+00  0.123E+00
  -3.174  0.122E+00  0.122E+00
  -3.164  0.139E+00  0.139E+00
  -3.154  0.168E+00  0.168E+00
  -3.144  0.201E+00  0.201E+00
  -3.134  0.233E+00  0.233E+00
  -3.124  0.259E+00  0.259E+00
  -3.114  0.277E+00  0.277E+00
  -3.104  0.288E+00  0.288E+00
  -3.094  0.291E+00  0.291E+00
  -3.084  0.289E+00  0.289E+00
  -3.074  0.280E+00  0.280E+00
  -3.064  0.264E+00  0.264E+00
  -3.054  0.242E+00  0.242E+00
  -3.044  0.215E+00  0.215E+00
  -3.034  0.187E+00  0.187E+00
  -3.024  0.161E+00  0.161E+00
  -3.014  0.144E+00  0.144E+00
  -3.004  0.139E+00  0.139E+00
  -2.994  0.147E+00  0.147E+00
  -2.984  0.167E+00  0.167E+00
  -2.974  0.195E+00  0.195E+00
  -2.964  0.225E+00  0.225E+00
  -2.954  0.250E+00  0.250E+00
  -2.944  0.265E+00  0.265E+00
  -2.934  0.265E+00  0.265E+00
  -2.924  0.251E+00  0.251E+00
  -2.914  0.223E+00  0.223E+00
  -2.904  0.186E+00  0.186E+00
  -2.894  0.143E+00  0.143E+00
  -2.884  0.102E+00  0.102E+00
  -2.874  0.673E-01  0.673E-01
  -2.864  0.443E-01  0.443E-01
  -2.854  0.368E-01  0.368E-01
  -2.844  0.467E-01  0.467E-01
  -2.834  0.742E-01  0.742E-01
  -2.824  0.118E+00  0.118E+00
  -2.814  0.174E+00  0.174E+00
  -2.804  0.238E+00  0.238E+00
  -2.794  0.307E+00  0.307E+00
  -2.784  0.375E+00  0.375E+00
  -2.774  0.437E+00  0.437E+00
  -2.764  0.489E+00  0.489E+00
  -2.754  0.527E+00  0.527E+00
  -2.744  0.547E+00  0.547E+00
  -2.734  0.544E+00  0.544E+00
  -2.724  0.518E+00  0.518E+00
  -2.714  0.469E+00  0.469E+00
  -2.704  0.402E+00  0.402E+00
  -2.694  0.323E+00  0.323E+00
  -2.684  0.240E+00  0.240E+00
  -2.674  0.161E+00  0.161E+00
  -2.664  0.939E-01  0.939E-01
  -2.654  0.415E-01  0.415E-01
  -2.644  0.506E-02  0.506E-02
  -2.634 -0.170E-01 -0.170E-01
  -2.624 -0.280E-01 -0.280E-01
  -2.614 -0.315E-01 -0.315E-01
  -2.604 -0.310E-01 -0.310E-01
  -2.594 -0.289E-01 -0.289E-01
  -2.584 -0.261E-01 -0.261E-01
  -2.574 -0.225E-01 -0.225E-01
  -2.564 -0.166E-01 -0.166E-01
  -2.554 -0.647E-02 -0.647E-02
  -2.544  0.103E-01  0.103E-01
  -2.534  0.353E-01  0.353E-01
  -2.524  0.691E-01  0.691E-01
  -2.514  0.111E+00  0.111E+00
  -2.504  0.157E+00  0.157E+00
  -2.494  0.203E+00  0.203E+00
  -2.484  0.243E+00  0.243E+00
  -2.474  0.272E+00  0.272E+00
  -2.464  0.286E+00  0.286E+00
  -2.454  0.283E+00  0.283E+00
  -2.444  0.267E+00  0.267E+00
  -2.434  0.242E+00  0.242E+00
  -2.424  0.214E+00  0.214E+00
  -2.414  0.190E+00  0.190E+00
  -2.404  0.174E+00  0.174E+00
  -2.394  0.168E+00  0.168E+00
  -2.384  0.171E+00  0.171E+00
  -2.374  0.178E+00  0.178E+00
  -2.364  0.184E+00  0.184E+00
  -2.354  0.186E+00  0.186E+00
  -2.344  0.181E+00  0.181E+00
  -2.334  0.171E+00  0.171E+00
  -2.324  0.161E+00  0.161E+00
  -2.314  0.154E+00  0.154E+00
  -2.304  0.155E+00  0.155E+00
  -2.294  0.168E+00  0.168E+00
  -2.284  0.190E+00  0.190E+00
  -2.274  0.217E+00  0.217E+00
  -2.264  0.245E+00  0.245E+00
  -2.254  0.266E+00  0.266E+00
  -2.244  0.276E+00  0.276E+00
  -2.234  0.272E+00  0.272E+00
  -2.224  0.253E+00  0.253E+00
  -2.214  0.223E+00  0.223E+00
  -2.204  0.186E+00  0.186E+00
  -2.194  0.144E+00  0.144E+00
  -2.184  0.104E+00  0.104E+00
  -2.174  0.678E-01  0.678E-01
  -2.164  0.381E-01  0.381E-01
  -2.154  0.158E-01  0.158E-01
  -2.144  0.575E-03  0.575E-03
  -2.134 -0.859E-02 -0.859E-02
  -2.124 -0.130E-01 -0.130E-01
  -2.114 -0.140E-01 -0.140E-01
  -2.104 -0.125E-01 -0.125E-01
  -2.094 -0.914E-02 -0.914E-02
  -2.084 -0.419E-02 -0.419E-02
  -2.074  0.234E-02  0.234E-02
  -2.064  0.104E-01  0.104E-01
  -2.054  0.197E-01  0.197E-01
  -2.044  0.297E-01  0.297E-01
  -2.034  0.391E-01  0.391E-01
  -2.024  0.469E-01  0.469E-01
  -2.014  0.517E-01  0.517E-01
  -2.004  0.527E-01  0.527E-01
  -1.994  0.498E-01  0.498E-01
  -1.984  0.433E-01  0.433E-01
  -1.974  0.341E-01  0.341E-01
  -1.964  0.238E-01  0.238E-01
  -1.954  0.139E-01  0.139E-01
  -1.944  0.569E-02  0.569E-02
  -1.934  0.458E-03  0.458E-03
  -1.924 -0.955E-03 -0.955E-03
  -1.914  0.200E-02  0.200E-02
  -1.904  0.950E-02  0.950E-02
  -1.894  0.213E-01  0.213E-01
  -1.884  0.367E-01  0.367E-01
  -1.874  0.545E-01  0.545E-01
  -1.864  0.728E-01  0.728E-01
  -1.854  0.899E-01  0.899E-01
  -1.844  0.104E+00  0.104E+00
  -1.834  0.114E+00  0.114E+00
  -1.824  0.120E+00  0.120E+00
  -1.814  0.123E+00  0.123E+00
  -1.804  0.124E+00  0.124E+00
  -1.794  0.124E+00  0.124E+00
  -1.784  0.126E+00  0.126E+00
  -1.774  0.129E+00  0.129E+00
  -1.764  0.133E+00  0.133E+00
  -1.754  0.136E+00  0.136E+00
  -1.744  0.136E+00  0.136E+00
  -1.734  0.131E+00  0.131E+00
  -1.724  0.121E+00  0.121E+00
  -1.714  0.107E+00  0.107E+00
  -1.704  0.892E-01  0.892E-01
  -1.694  0.705E-01  0.705E-01
  -1.684  0.530E-01  0.530E-01
  -1.674  0.389E-01  0.389E-01
  -1.664  0.296E-01  0.296E-01
  -1.654  0.254E-01  0.254E-01
  -1.644  0.259E-01  0.259E-01
  -1.634  0.297E-01  0.297E-01
  -1.624  0.350E-01  0.350E-01
  -1.614  0.398E-01  0.398E-01
  -1.604  0.426E-01  0.426E-01
  -1.594  0.425E-01  0.425E-01
  -1.584  0.392E-01  0.392E-01
  -1.574  0.334E-01  0.334E-01
  -1.564  0.261E-01  0.261E-01
  -1.554  0.183E-01  0.183E-01
  -1.544  0.112E-01  0.112E-01
  -1.534  0.544E-02  0.544E-02
  -1.524  0.132E-02  0.132E-02
  -1.514 -0.122E-02 -0.122E-02
  -1.504 -0.249E-02 -0.249E-02
  -1.494 -0.290E-02 -0.290E-02
  -1.484 -0.287E-02 -0.287E-02
  -1.474 -0.277E-02 -0.277E-02
  -1.464 -0.283E-02 -0.283E-02
  -1.454 -0.319E-02 -0.319E-02
  -1.444 -0.386E-02 -0.386E-02
  -1.434 -0.469E-02 -0.469E-02
  -1.424 -0.535E-02 -0.535E-02
  -1.414 -0.535E-02 -0.535E-02
  -1.404 -0.402E-02 -0.402E-02
  -1.394 -0.682E-03 -0.682E-03
  -1.384  0.519E-02  0.519E-02
  -1.374  0.137E-01  0.137E-01
  -1.364  0.244E-01  0.244E-01
  -1.354  0.360E-01  0.360E-01
  -1.344  0.472E-01  0.472E-01
  -1.334  0.563E-01  0.563E-01
  -1.324  0.629E-01  0.629E-01
  -1.314  0.679E-01  0.679E-01
  -1.304  0.740E-01  0.740E-01
  -1.294  0.859E-01  0.859E-01
  -1.284  0.109E+00  0.109E+00
  -1.274  0.146E+00  0.146E+00
  -1.264  0.199E+00  0.199E+00
  -1.254  0.265E+00  0.265E+00
  -1.244  0.336E+00  0.336E+00
  -1.234  0.402E+00  0.402E+00
  -1.224  0.451E+00  0.451E+00
  -1.214  0.475E+00  0.475E+00
  -1.204  0.467E+00  0.467E+00
  -1.194  0.431E+00  0.431E+00
  -1.184  0.373E+00  0.373E+00
  -1.174  0.304E+00  0.304E+00
  -1.164  0.235E+00  0.235E+00
  -1.154  0.174E+00  0.174E+00
  -1.144  0.127E+00  0.127E+00
  -1.134  0.952E-01  0.952E-01
  -1.124  0.751E-01  0.751E-01
  -1.114  0.628E-01  0.628E-01
  -1.104  0.541E-01  0.541E-01
  -1.094  0.464E-01  0.464E-01
  -1.084  0.386E-01  0.386E-01
  -1.074  0.315E-01  0.315E-01
  -1.064  0.269E-01  0.269E-01
  -1.054  0.264E-01  0.264E-01
  -1.044  0.309E-01  0.309E-01
  -1.034  0.399E-01  0.399E-01
  -1.024  0.517E-01  0.517E-01
  -1.014  0.638E-01  0.638E-01
  -1.004  0.733E-01  0.733E-01
  -0.994  0.784E-01  0.784E-01
  -0.984  0.786E-01  0.786E-01
  -0.974  0.754E-01  0.754E-01
  -0.964  0.719E-01  0.719E-01
  -0.954  0.726E-01  0.726E-01
  -0.944  0.818E-01  0.818E-01
  -0.934  0.103E+00  0.103E+00
  -0.924  0.138E+00  0.138E+00
  -0.914  0.184E+00  0.184E+00
  -0.904  0.238E+00  0.238E+00
  -0.894  0.295E+00  0.295E+00
  -0.884  0.348E+00  0.348E+00
  -0.874  0.392E+00  0.392E+00
  -0.864  0.424E+00  0.424E+00
  -0.854  0.443E+00  0.443E+00
  -0.844  0.449E+00  0.449E+00
  -0.834  0.447E+00  0.447E+00
  -0.824  0.439E+00  0.439E+00
  -0.814  0.427E+00  0.427E+00
  -0.804  0.413E+00  0.413E+00
  -0.794  0.396E+00  0.396E+00
  -0.784  0.376E+00  0.376E+00
  -0.774  0.353E+00  0.353E+00
  -0.764  0.325E+00  0.325E+00
  -0.754  0.295E+00  0.295E+00
  -0.744  0.263E+00  0.263E+00
  -0.734  0.232E+00  0.232E+00
  -0.724  0.203E+00  0.203E+00
  -0.714  0.178E+00  0.178E+00
  -0.704  0.159E+00  0.159E+00
  -0.694  0.147E+00  0.147E+00
  -0.684  0.143E+00  0.143E+00
  -0.674  0.148E+00  0.148E+00
  -0.664  0.161E+00  0.161E+00
  -0.654  0.180E+00  0.180E+00
  -0.644  0.204E+00  0.204E+00
  -0.634  0.230E+00  0.230E+00
  -0.624  0.253E+00  0.253E+00
  -0.614  0.271E+00  0.271E+00
  -0.604  0.281E+00  0.281E+00
  -0.594  0.281E+00  0.281E+00
  -0.584  0.270E+00  0.270E+00
  -0.574  0.251E+00  0.251E+00
  -0.564  0.226E+00  0.226E+00
  -0.554  0.201E+00  0.201E+00
  -0.544  0.181E+00  0.181E+00
  -0.534  0.169E+00  0.169E+00
  -0.524  0.167E+00  0.167E+00
  -0.514  0.174E+00  0.174E+00
  -0.504  0.186E+00  0.186E+00
  -0.494  0.200E+00  0.200E+00
  -0.484  0.210E+00  0.210E+00
  -0.474  0.214E+00  0.214E+00
  -0.464  0.213E+00  0.213E+00
  -0.454  0.207E+00  0.207E+00
  -0.444  0.200E+00  0.200E+00
  -0.434  0.193E+00  0.193E+00
  -0.424  0.188E+00  0.188E+00
  -0.414  0.187E+00  0.187E+00
  -0.404  0.187E+00  0.187E+00
  -0.394  0.187E+00  0.187E+00
  -0.384  0.184E+00  0.184E+00
  -0.374  0.177E+00  0.177E+00
  -0.364  0.166E+00  0.166E+00
  -0.354  0.152E+00  0.152E+00
  -0.344  0.138E+00  0.138E+00
  -0.334  0.123E+00  0.123E+00
  -0.324  0.111E+00  0.111E+00
  -0.314  0.100E+00  0.100E+00
  -0.304  0.910E-01  0.910E-01
  -0.294  0.814E-01  0.814E-01
  -0.284  0.704E-01  0.704E-01
  -0.274  0.574E-01  0.574E-01
  -0.264  0.425E-01  0.425E-01
  -0.254  0.266E-01  0.266E-01
  -0.244  0.110E-01  0.110E-01
  -0.234 -0.275E-02 -0.275E-02
  -0.224 -0.130E-01 -0.130E-01
  -0.214 -0.178E-01 -0.178E-01
  -0.204 -0.152E-01 -0.152E-01
  -0.194 -0.327E-02 -0.327E-02
  -0.184  0.199E-01  0.199E-01
  -0.174  0.551E-01  0.551E-01
  -0.164  0.102E+00  0.102E+00
  -0.154  0.157E+00  0.157E+00
  -0.144  0.217E+00  0.217E+00
  -0.134  0.275E+00  0.275E+00
  -0.124  0.324E+00  0.324E+00
  -0.114  0.358E+00  0.358E+00
  -0.104  0.373E+00  0.373E+00
  -0.094  0.366E+00  0.366E+00
  -0.084  0.340E+00  0.340E+00
  -0.074  0.298E+00  0.298E+00
  -0.064  0.247E+00  0.247E+00
  -0.054  0.192E+00  0.192E+00
  -0.044  0.139E+00  0.139E+00
  -0.034  0.917E-01  0.917E-01
  -0.024  0.528E-01  0.528E-01
  -0.014  0.235E-01  0.235E-01
  -0.004  0.367E-02  0.367E-02
   0.006 -0.741E-02 -0.741E-02
   0.016 -0.106E-01 -0.106E-01
   0.026 -0.705E-02 -0.705E-02
   0.036  0.231E-02  0.231E-02
   0.046  0.162E-01  0.162E-01
   0.056  0.329E-01  0.329E-01
   0.066  0.505E-01  0.505E-01
   0.076  0.665E-01  0.665E-01
   0.086  0.784E-01  0.784E-01
   0.096  0.842E-01  0.842E-01
   0.106  0.827E-01  0.827E-01
   0.116  0.739E-01  0.739E-01
   0.126  0.593E-01  0.593E-01
   0.136  0.416E-01  0.416E-01
   0.146  0.244E-01  0.244E-01
   0.156  0.121E-01  0.121E-01
   0.166  0.863E-02  0.863E-02
   0.176  0.176E-01  0.176E-01
   0.186  0.411E-01  0.411E-01
   0.196  0.793E-01  0.793E-01
   0.206  0.130E+00  0.130E+00
   0.216  0.187E+00  0.187E+00
   0.226  0.245E+00  0.245E+00
   0.236  0.294E+00  0.294E+00
   0.246  0.326E+00  0.326E+00
   0.256  0.337E+00  0.337E+00
   0.266  0.325E+00  0.325E+00
   0.276  0.291E+00  0.291E+00
   0.286  0.241E+00  0.241E+00
   0.296  0.183E+00  0.183E+00
   0.306  0.125E+00  0.125E+00
   0.316  0.733E-01  0.733E-01
   0.326  0.321E-01  0.321E-01
   0.336  0.370E-02  0.370E-02
   0.346 -0.118E-01 -0.118E-01
   0.356 -0.156E-01 -0.156E-01
   0.366 -0.972E-02 -0.972E-02
   0.376  0.382E-02  0.382E-02
   0.386  0.228E-01  0.228E-01
   0.396  0.450E-01  0.450E-01
   0.406  0.678E-01  0.678E-01
   0.416  0.884E-01  0.884E-01
   0.426  0.104E+00  0.104E+00
   0.436  0.113E+00  0.113E+00
   0.446  0.114E+00  0.114E+00
   0.456  0.106E+00  0.106E+00
   0.466  0.920E-01  0.920E-01
   0.476  0.734E-01  0.734E-01
   0.486  0.532E-01  0.532E-01
   0.496  0.338E-01  0.338E-01
   0.506  0.171E-01  0.171E-01
   0.516  0.416E-02  0.416E-02
   0.526 -0.471E-02 -0.471E-02
   0.536 -0.979E-02 -0.979E-02
   0.546 -0.116E-01 -0.116E-01
   0.556 -0.103E-01 -0.103E-01
   0.566 -0.610E-02 -0.610E-02
   0.576  0.146E-02  0.146E-02
   0.586  0.129E-01  0.129E-01
   0.596  0.289E-01  0.289E-01
   0.606  0.494E-01  0.494E-01
   0.616  0.741E-01  0.741E-01
   0.626  0.101E+00  0.101E+00
   0.636  0.129E+00  0.129E+00
   0.646  0.155E+00  0.155E+00
   0.656  0.175E+00  0.175E+00
   0.666  0.187E+00  0.187E+00
   0.676  0.189E+00  0.189E+00
   0.686  0.181E+00  0.181E+00
   0.696  0.163E+00  0.163E+00
   0.706  0.139E+00  0.139E+00
   0.716  0.111E+00  0.111E+00
   0.726  0.814E-01  0.814E-01
   0.736  0.542E-01  0.542E-01
   0.746  0.311E-01  0.311E-01
   0.756  0.131E-01  0.131E-01
   0.766  0.520E-03  0.520E-03
   0.776 -0.722E-02 -0.722E-02
   0.786 -0.109E-01 -0.109E-01
   0.796 -0.116E-01 -0.116E-01
   0.806 -0.980E-02 -0.980E-02
   0.816 -0.597E-02 -0.597E-02
   0.826 -0.206E-06 -0.206E-06
   0.836  0.857E-02  0.857E-02
   0.846  0.204E-01  0.204E-01
   0.856  0.359E-01  0.359E-01
   0.866  0.551E-01  0.551E-01
   0.876  0.773E-01  0.773E-01
   0.886  0.101E+00  0.101E+00
   0.896  0.123E+00  0.123E+00
   0.906  0.140E+00  0.140E+00
   0.916  0.149E+00  0.149E+00
   0.926  0.150E+00  0.150E+00
   0.936  0.140E+00  0.140E+00
   0.946  0.122E+00  0.122E+00
   0.956  0.987E-01  0.987E-01
   0.966  0.749E-01  0.749E-01
   0.976  0.548E-01  0.548E-01
   0.986  0.419E-01  0.419E-01
   0.996  0.382E-01  0.382E-01
   1.006  0.439E-01  0.439E-01
   1.016  0.569E-01  0.569E-01
   1.026  0.741E-01  0.741E-01
   1.036  0.913E-01  0.913E-01
   1.046  0.105E+00  0.105E+00
   1.056  0.111E+00  0.111E+00
   1.066  0.109E+00  0.109E+00
   1.076  0.991E-01  0.991E-01
   1.086  0.830E-01  0.830E-01
   1.096  0.636E-01  0.636E-01
   1.106  0.443E-01  0.443E-01
   1.116  0.283E-01  0.283E-01
   1.126  0.179E-01  0.179E-01
   1.136  0.141E-01  0.141E-01
   1.146  0.168E-01  0.168E-01
   1.156  0.249E-01  0.249E-01
   1.166  0.364E-01  0.364E-01
   1.176  0.487E-01  0.487E-01
   1.186  0.593E-01  0.593E-01
   1.196  0.663E-01  0.663E-01
   1.206  0.682E-01  0.682E-01
   1.216  0.649E-01  0.649E-01
   1.226  0.571E-01  0.571E-01
   1.236  0.463E-01  0.463E-01
   1.246  0.341E-01  0.341E-01
   1.256  0.223E-01  0.223E-01
   1.266  0.121E-01  0.121E-01
   1.276  0.415E-02  0.415E-02
   1.286 -0.142E-02 -0.142E-02
   1.296 -0.504E-02 -0.504E-02
   1.306 -0.726E-02 -0.726E-02
   1.316 -0.864E-02 -0.864E-02
   1.326 -0.946E-02 -0.946E-02
   1.336 -0.964E-02 -0.964E-02
   1.346 -0.867E-02 -0.867E-02
   1.356 -0.568E-02 -0.568E-02
   1.366  0.388E-03  0.388E-03
   1.376  0.105E-01  0.105E-01
   1.386  0.252E-01  0.252E-01
   1.396  0.444E-01  0.444E-01
   1.406  0.668E-01  0.668E-01
   1.416  0.906E-01  0.906E-01
   1.426  0.113E+00  0.113E+00
   1.436  0.132E+00  0.132E+00
   1.446  0.145E+00  0.145E+00
   1.456  0.150E+00  0.150E+00
   1.466  0.148E+00  0.148E+00
   1.476  0.140E+00  0.140E+00
   1.486  0.128E+00  0.128E+00
   1.496  0.112E+00  0.112E+00
   1.506  0.953E-01  0.953E-01
   1.516  0.784E-01  0.784E-01
   1.526  0.623E-01  0.623E-01
   1.536  0.474E-01  0.474E-01
   1.546  0.342E-01  0.342E-01
   1.556  0.229E-01  0.229E-01
   1.566  0.137E-01  0.137E-01
   1.576  0.667E-02  0.667E-02
   1.586  0.179E-02  0.179E-02
   1.596 -0.122E-02 -0.122E-02
   1.606 -0.274E-02 -0.274E-02
   1.616 -0.325E-02 -0.325E-02
   1.626 -0.316E-02 -0.316E-02
   1.636 -0.280E-02 -0.280E-02
   1.646 -0.238E-02 -0.238E-02
   1.656 -0.196E-02 -0.196E-02
   1.666 -0.152E-02 -0.152E-02
   1.676 -0.935E-03 -0.935E-03
   1.686 -0.827E-04 -0.827E-04
   1.696  0.116E-02  0.116E-02
   1.706  0.283E-02  0.283E-02
   1.716  0.489E-02  0.489E-02
   1.726  0.719E-02  0.719E-02
   1.736  0.946E-02  0.946E-02
   1.746  0.114E-01  0.114E-01
   1.756  0.126E-01  0.126E-01
   1.766  0.129E-01  0.129E-01
   1.776  0.121E-01  0.121E-01
   1.786  0.102E-01  0.102E-01
   1.796  0.753E-02  0.753E-02
   1.806  0.459E-02  0.459E-02
   1.816  0.219E-02  0.219E-02
   1.826  0.148E-02  0.148E-02
   1.836  0.387E-02  0.387E-02
   1.846  0.108E-01  0.108E-01
   1.856  0.236E-01  0.236E-01
   1.866  0.430E-01  0.430E-01
   1.876  0.686E-01  0.686E-01
   1.886  0.988E-01  0.988E-01
   1.896  0.131E+00  0.131E+00
   1.906  0.161E+00  0.161E+00
   1.916  0.185E+00  0.185E+00
   1.926  0.200E+00  0.200E+00
   1.936  0.203E+00  0.203E+00
   1.946  0.195E+00  0.195E+00
   1.956  0.177E+00  0.177E+00
   1.966  0.153E+00  0.153E+00
   1.976  0.125E+00  0.125E+00
   1.986  0.972E-01  0.972E-01
   1.996  0.734E-01  0.734E-01
   2.006  0.551E-01  0.551E-01
   2.016  0.428E-01  0.428E-01
   2.026  0.361E-01  0.361E-01
   2.036  0.336E-01  0.336E-01
   2.046  0.336E-01  0.336E-01
   2.056  0.344E-01  0.344E-01
   2.066  0.350E-01  0.350E-01
   2.076  0.345E-01  0.345E-01
   2.086  0.331E-01  0.331E-01
   2.096  0.312E-01  0.312E-01
   2.106  0.295E-01  0.295E-01
   2.116  0.284E-01  0.284E-01
   2.126  0.284E-01  0.284E-01
   2.136  0.291E-01  0.291E-01
   2.146  0.303E-01  0.303E-01
   2.156  0.314E-01  0.314E-01
   2.166  0.318E-01  0.318E-01
   2.176  0.313E-01  0.313E-01
   2.186  0.297E-01  0.297E-01
   2.196  0.272E-01  0.272E-01
   2.206  0.241E-01  0.241E-01
   2.216  0.206E-01  0.206E-01
   2.226  0.171E-01  0.171E-01
   2.236  0.139E-01  0.139E-01
   2.246  0.112E-01  0.112E-01
   2.256  0.942E-02  0.942E-02
   2.266  0.897E-02  0.897E-02
   2.276  0.101E-01  0.101E-01
   2.286  0.130E-01  0.130E-01
   2.296  0.175E-01  0.175E-01
   2.306  0.233E-01  0.233E-01
   2.316  0.299E-01  0.299E-01
   2.326  0.366E-01  0.366E-01
   2.336  0.426E-01  0.426E-01
   2.346  0.476E-01  0.476E-01
   2.356  0.514E-01  0.514E-01
   2.366  0.545E-01  0.545E-01
   2.376  0.576E-01  0.576E-01
   2.386  0.617E-01  0.617E-01
   2.396  0.678E-01  0.678E-01
   2.406  0.764E-01  0.764E-01
   2.416  0.873E-01  0.873E-01
   2.426  0.995E-01  0.995E-01
   2.436  0.111E+00  0.111E+00
   2.446  0.121E+00  0.121E+00
   2.456  0.125E+00  0.125E+00
   2.466  0.124E+00  0.124E+00
   2.476  0.118E+00  0.118E+00
   2.486  0.105E+00  0.105E+00
   2.496  0.898E-01  0.898E-01
   2.506  0.725E-01  0.725E-01
   2.516  0.557E-01  0.557E-01
   2.526  0.406E-01  0.406E-01
   2.536  0.282E-01  0.282E-01
   2.546  0.186E-01  0.186E-01
   2.556  0.115E-01  0.115E-01
   2.566  0.619E-02  0.619E-02
   2.576  0.222E-02  0.222E-02
   2.586 -0.900E-03 -0.900E-03
   2.596 -0.339E-02 -0.339E-02
   2.606 -0.523E-02 -0.523E-02
   2.616 -0.616E-02 -0.616E-02
   2.626 -0.568E-02 -0.568E-02
   2.636 -0.313E-02 -0.313E-02
   2.646  0.220E-02  0.220E-02
   2.656  0.109E-01  0.109E-01
   2.666  0.231E-01  0.231E-01
   2.676  0.384E-01  0.384E-01
   2.686  0.554E-01  0.554E-01
   2.696  0.724E-01  0.724E-01
   2.706  0.868E-01  0.868E-01
   2.716  0.966E-01  0.966E-01
   2.726  0.100E+00  0.100E+00
   2.736  0.966E-01  0.966E-01
   2.746  0.869E-01  0.869E-01
   2.756  0.726E-01  0.726E-01
   2.766  0.563E-01  0.563E-01
   2.776  0.401E-01  0.401E-01
   2.786  0.263E-01  0.263E-01
   2.796  0.162E-01  0.162E-01
   2.806  0.102E-01  0.102E-01
   2.816  0.832E-02  0.832E-02
   2.826  0.988E-02  0.988E-02
   2.836  0.142E-01  0.142E-01
   2.846  0.207E-01  0.207E-01
   2.856  0.287E-01  0.287E-01
   2.866  0.381E-01  0.381E-01
   2.876  0.485E-01  0.485E-01
   2.886  0.593E-01  0.593E-01
   2.896  0.699E-01  0.699E-01
   2.906  0.794E-01  0.794E-01
   2.916  0.865E-01  0.865E-01
   2.926  0.900E-01  0.900E-01
   2.936  0.893E-01  0.893E-01
   2.946  0.842E-01  0.842E-01
   2.956  0.752E-01  0.752E-01
   2.966  0.637E-01  0.637E-01
   2.976  0.514E-01  0.514E-01
   2.986  0.400E-01  0.400E-01
   2.996  0.311E-01  0.311E-01
   3.006  0.256E-01  0.256E-01
   3.016  0.239E-01  0.239E-01
   3.026  0.256E-01  0.256E-01
   3.036  0.301E-01  0.301E-01
   3.046  0.368E-01  0.368E-01
   3.056  0.450E-01  0.450E-01
   3.066  0.541E-01  0.541E-01
   3.076  0.636E-01  0.636E-01
   3.086  0.730E-01  0.730E-01
   3.096  0.813E-01  0.813E-01
   3.106  0.878E-01  0.878E-01
   3.116  0.913E-01  0.913E-01
   3.126  0.910E-01  0.910E-01
   3.136  0.865E-01  0.865E-01
   3.146  0.778E-01  0.778E-01
   3.156  0.659E-01  0.659E-01
   3.166  0.519E-01  0.519E-01
   3.176  0.375E-01  0.375E-01
   3.186  0.240E-01  0.240E-01
   3.196  0.126E-01  0.126E-01
   3.206  0.386E-02  0.386E-02
   3.216 -0.195E-02 -0.195E-02
   3.226 -0.488E-02 -0.488E-02
   3.236 -0.514E-02 -0.514E-02
   3.246 -0.293E-02 -0.293E-02
   3.256  0.159E-02  0.159E-02
   3.266  0.823E-02  0.823E-02
   3.276  0.167E-01  0.167E-01
   3.286  0.265E-01  0.265E-01
   3.296  0.369E-01  0.369E-01
   3.306  0.468E-01  0.468E-01
   3.316  0.551E-01  0.551E-01
   3.326  0.607E-01  0.607E-01
   3.336  0.627E-01  0.627E-01
   3.346  0.608E-01  0.608E-01
   3.356  0.551E-01  0.551E-01
   3.366  0.466E-01  0.466E-01
   3.376  0.366E-01  0.366E-01
   3.386  0.268E-01  0.268E-01
   3.396  0.192E-01  0.192E-01
   3.406  0.150E-01  0.150E-01
   3.416  0.155E-01  0.155E-01
   3.426  0.206E-01  0.206E-01
   3.436  0.299E-01  0.299E-01
   3.446  0.419E-01  0.419E-01
   3.456  0.546E-01  0.546E-01
   3.466  0.659E-01  0.659E-01
   3.476  0.738E-01  0.738E-01
   3.486  0.770E-01  0.770E-01
   3.496  0.752E-01  0.752E-01
   3.506  0.689E-01  0.689E-01
   3.516  0.594E-01  0.594E-01
   3.526  0.483E-01  0.483E-01
   3.536  0.374E-01  0.374E-01
   3.546  0.279E-01  0.279E-01
   3.556  0.206E-01  0.206E-01
   3.566  0.156E-01  0.156E-01
   3.576  0.126E-01  0.126E-01
   3.586  0.109E-01  0.109E-01
   3.596  0.994E-02  0.994E-02
   3.606  0.907E-02  0.907E-02
   3.616  0.793E-02  0.793E-02
   3.626  0.641E-02  0.641E-02
   3.636  0.460E-02  0.460E-02
   3.646  0.278E-02  0.278E-02
   3.656  0.131E-02  0.131E-02
   3.666  0.616E-03  0.616E-03
   3.676  0.112E-02  0.112E-02
   3.686  0.313E-02  0.313E-02
   3.696  0.681E-02  0.681E-02
   3.706  0.121E-01  0.121E-01
   3.716  0.185E-01  0.185E-01
   3.726  0.255E-01  0.255E-01
   3.736  0.321E-01  0.321E-01
   3.746  0.374E-01  0.374E-01
   3.756  0.406E-01  0.406E-01
   3.766  0.412E-01  0.412E-01
   3.776  0.391E-01  0.391E-01
   3.786  0.345E-01  0.345E-01
   3.796  0.282E-01  0.282E-01
   3.806  0.213E-01  0.213E-01
   3.816  0.149E-01  0.149E-01
   3.826  0.101E-01  0.101E-01
   3.836  0.772E-02  0.772E-02
   3.846  0.844E-02  0.844E-02
   3.856  0.124E-01  0.124E-01
   3.866  0.193E-01  0.193E-01
   3.876  0.284E-01  0.284E-01
   3.886  0.383E-01  0.383E-01
   3.896  0.477E-01  0.477E-01
   3.906  0.550E-01  0.550E-01
   3.916  0.592E-01  0.592E-01
   3.926  0.596E-01  0.596E-01
   3.936  0.566E-01  0.566E-01
   3.946  0.509E-01  0.509E-01
   3.956  0.439E-01  0.439E-01
   3.966  0.370E-01  0.370E-01
   3.976  0.314E-01  0.314E-01
   3.986  0.276E-01  0.276E-01
   3.996  0.258E-01  0.258E-01
   4.006  0.257E-01  0.257E-01
   4.016  0.264E-01  0.264E-01
   4.026  0.274E-01  0.274E-01
   4.036  0.280E-01  0.280E-01
   4.046  0.280E-01  0.280E-01
   4.056  0.273E-01  0.273E-01
   4.066  0.260E-01  0.260E-01
   4.076  0.243E-01  0.243E-01
   4.086  0.224E-01  0.224E-01
   4.096  0.202E-01  0.202E-01
   4.106  0.179E-01  0.179E-01
   4.116  0.154E-01  0.154E-01
   4.126  0.128E-01  0.128E-01
   4.136  0.104E-01  0.104E-01
   4.146  0.855E-02  0.855E-02
   4.156  0.752E-02  0.752E-02
   4.166  0.760E-02  0.760E-02
   4.176  0.896E-02  0.896E-02
   4.186  0.116E-01  0.116E-01
   4.196  0.154E-01  0.154E-01
   4.206  0.200E-01  0.200E-01
   4.216  0.252E-01  0.252E-01
   4.226  0.304E-01  0.304E-01
   4.236  0.353E-01  0.353E-01
   4.246  0.394E-01  0.394E-01
   4.256  0.424E-01  0.424E-01
   4.266  0.441E-01  0.441E-01
   4.276  0.443E-01  0.443E-01
   4.286  0.432E-01  0.432E-01
   4.296  0.410E-01  0.410E-01
   4.306  0.378E-01  0.378E-01
   4.316  0.341E-01  0.341E-01
   4.326  0.300E-01  0.300E-01
   4.336  0.258E-01  0.258E-01
   4.346  0.216E-01  0.216E-01
   4.356  0.174E-01  0.174E-01
   4.366  0.135E-01  0.135E-01
   4.376  0.981E-02  0.981E-02
   4.386  0.653E-02  0.653E-02
   4.396  0.376E-02  0.376E-02
   4.406  0.161E-02  0.161E-02
   4.416  0.154E-03  0.154E-03
   4.426 -0.577E-03 -0.577E-03
   4.436 -0.601E-03 -0.601E-03
   4.446  0.985E-05  0.985E-05
   4.456  0.113E-02  0.113E-02
   4.466  0.261E-02  0.261E-02
   4.476  0.427E-02  0.427E-02
   4.486  0.595E-02  0.595E-02
   4.496  0.755E-02  0.755E-02
   4.506  0.906E-02  0.906E-02
   4.516  0.105E-01  0.105E-01
   4.526  0.121E-01  0.121E-01
   4.536  0.140E-01  0.140E-01
   4.546  0.161E-01  0.161E-01
   4.556  0.183E-01  0.183E-01
   4.566  0.205E-01  0.205E-01
   4.576  0.223E-01  0.223E-01
   4.586  0.231E-01  0.231E-01
   4.596  0.229E-01  0.229E-01
   4.606  0.213E-01  0.213E-01
   4.616  0.187E-01  0.187E-01
   4.626  0.152E-01  0.152E-01
   4.636  0.114E-01  0.114E-01
   4.646  0.774E-02  0.774E-02
   4.656  0.455E-02  0.455E-02
   4.666  0.207E-02  0.207E-02
   4.676  0.364E-03  0.364E-03
   4.686 -0.642E-03 -0.642E-03
   4.696 -0.110E-02 -0.110E-02
   4.706 -0.118E-02 -0.118E-02
   4.716 -0.106E-02 -0.106E-02
   4.726 -0.870E-03 -0.870E-03
   4.736 -0.685E-03 -0.685E-03
   4.746 -0.557E-03 -0.557E-03
   4.756 -0.504E-03 -0.504E-03
   4.766 -0.522E-03 -0.522E-03
   4.776 -0.591E-03 -0.591E-03
   4.786 -0.674E-03 -0.674E-03
   4.796 -0.715E-03 -0.715E-03
   4.806 -0.642E-03 -0.642E-03
   4.816 -0.369E-03 -0.369E-03
   4.826  0.196E-03  0.196E-03
   4.836  0.113E-02  0.113E-02
   4.846  0.249E-02  0.249E-02
   4.856  0.428E-02  0.428E-02
   4.866  0.645E-02  0.645E-02
   4.876  0.890E-02  0.890E-02
   4.886  0.115E-01  0.115E-01
   4.896  0.140E-01  0.140E-01
   4.906  0.162E-01  0.162E-01
   4.916  0.180E-01  0.180E-01
   4.926  0.192E-01  0.192E-01
   4.936  0.198E-01  0.198E-01
   4.946  0.197E-01  0.197E-01
   4.956  0.190E-01  0.190E-01
   4.966  0.177E-01  0.177E-01
   4.976  0.161E-01  0.161E-01
   4.986  0.141E-01  0.141E-01
   4.996  0.120E-01  0.120E-01
   5.006  0.978E-02  0.978E-02
   5.016  0.761E-02  0.761E-02
   5.026  0.560E-02  0.560E-02
   5.036  0.391E-02  0.391E-02
   5.046  0.268E-02  0.268E-02
   5.056  0.203E-02  0.203E-02
   5.066  0.206E-02  0.206E-02
   5.076  0.276E-02  0.276E-02
   5.086  0.405E-02  0.405E-02
   5.096  0.573E-02  0.573E-02
   5.106  0.755E-02  0.755E-02
   5.116  0.920E-02  0.920E-02
   5.126  0.104E-01  0.104E-01
   5.136  0.110E-01  0.110E-01
   5.146  0.108E-01  0.108E-01
   5.156  0.101E-01  0.101E-01
   5.166  0.886E-02  0.886E-02
   5.176  0.752E-02  0.752E-02
   5.186  0.635E-02  0.635E-02
   5.196  0.561E-02  0.561E-02
   5.206  0.543E-02  0.543E-02
   5.216  0.581E-02  0.581E-02
   5.226  0.658E-02  0.658E-02
   5.236  0.749E-02  0.749E-02
   5.246  0.825E-02  0.825E-02
   5.256  0.860E-02  0.860E-02
   5.266  0.841E-02  0.841E-02
   5.276  0.767E-02  0.767E-02
   5.286  0.646E-02  0.646E-02
   5.296  0.500E-02  0.500E-02
   5.306  0.348E-02  0.348E-02
   5.316  0.211E-02  0.211E-02
   5.326  0.101E-02  0.101E-02
   5.336  0.236E-03  0.236E-03
   5.346 -0.234E-03 -0.234E-03
   5.356 -0.455E-03 -0.455E-03
   5.366 -0.502E-03 -0.502E-03
   5.376 -0.449E-03 -0.449E-03
   5.386 -0.354E-03 -0.354E-03
   5.396 -0.254E-03 -0.254E-03
   5.406 -0.168E-03 -0.168E-03
   5.416 -0.104E-03 -0.104E-03
   5.426 -0.605E-04 -0.605E-04
   5.436 -0.332E-04 -0.332E-04
   5.446 -0.172E-04 -0.172E-04
   5.456 -0.845E-05 -0.845E-05
   5.466 -0.394E-05 -0.394E-05
   5.476 -0.175E-05 -0.175E-05
   5.486 -0.738E-06 -0.738E-06
   5.496 -0.296E-06 -0.296E-06
   5.506 -0.113E-06 -0.113E-06
   5.516 -0.414E-07 -0.414E-07
   5.526 -0.144E-07 -0.144E-07
   5.536 -0.479E-08 -0.479E-08
   5.546 -0.152E-08 -0.152E-08
   5.556 -0.459E-09 -0.459E-09
   5.566 -0.133E-09 -0.133E-09
   5.576 -0.366E-10 -0.366E-10
   5.586 -0.966E-11 -0.966E-11
   5.596 -0.244E-11 -0.244E-11
   5.606 -0.587E-12 -0.587E-12
   5.616 -0.643E-15 -0.643E-15
   5.626 -0.387E-15 -0.387E-15
   5.636  0.136E-15  0.136E-15
   5.646  0.989E-15  0.989E-15
   5.656  0.219E-14  0.219E-14
   5.666  0.371E-14  0.371E-14
   5.676  0.543E-14  0.543E-14
   5.686  0.714E-14  0.714E-14
   5.696  0.864E-14  0.864E-14
   5.706  0.968E-14  0.968E-14
   5.716  0.101E-13  0.101E-13
   5.726  0.983E-14  0.983E-14
   5.736  0.892E-14  0.892E-14
   5.746  0.752E-14  0.752E-14
   5.756  0.586E-14  0.586E-14
   5.766  0.417E-14  0.417E-14
   5.776  0.265E-14  0.265E-14
   5.786  0.144E-14  0.144E-14
   5.796  0.605E-15  0.605E-15
   5.806  0.120E-15  0.120E-15
   5.816 -0.796E-16 -0.796E-16
   5.826 -0.842E-16 -0.842E-16
   5.836  0.143E-16  0.143E-16
   5.846  0.141E-15  0.141E-15
   5.856  0.245E-15  0.245E-15
   5.866  0.302E-15  0.302E-15
   5.876  0.307E-15  0.307E-15
   5.886  0.270E-15  0.270E-15
   5.896  0.209E-15  0.209E-15
   5.906  0.140E-15  0.140E-15
   5.916  0.764E-16  0.764E-16
   5.926  0.269E-16  0.269E-16
   5.936 -0.605E-17 -0.605E-17
   5.946 -0.238E-16 -0.238E-16
   5.956 -0.299E-16 -0.299E-16
   5.966 -0.286E-16 -0.286E-16
   5.976 -0.236E-16 -0.236E-16
   5.986 -0.175E-16 -0.175E-16
   5.996 -0.120E-16 -0.120E-16
   6.006 -0.762E-17 -0.762E-17
   6.016 -0.454E-17 -0.454E-17
   6.026 -0.255E-17 -0.255E-17
   6.036 -0.135E-17 -0.135E-17
   6.046 -0.680E-18 -0.680E-18
   6.056 -0.324E-18 -0.324E-18
   6.066 -0.147E-18 -0.147E-18
   6.076 -0.633E-19 -0.633E-19
   6.086 -0.259E-19 -0.259E-19
   6.096 -0.101E-19 -0.101E-19
   6.106 -0.377E-20 -0.377E-20
   6.116 -0.134E-20 -0.134E-20
   6.126 -0.454E-21 -0.454E-21
   6.136 -0.101E-11 -0.101E-11
   6.146 -0.419E-11 -0.419E-11
   6.156 -0.166E-10 -0.166E-10
   6.166 -0.626E-10 -0.626E-10
   6.176 -0.226E-09 -0.226E-09
   6.186 -0.781E-09 -0.781E-09
   6.196 -0.257E-08 -0.257E-08
   6.206 -0.810E-08 -0.810E-08
   6.216 -0.243E-07 -0.243E-07
   6.226 -0.697E-07 -0.697E-07
   6.236 -0.190E-06 -0.190E-06
   6.246 -0.496E-06 -0.496E-06
   6.256 -0.123E-05 -0.123E-05
   6.266 -0.291E-05 -0.291E-05
   6.276 -0.654E-05 -0.654E-05
   6.286 -0.140E-04 -0.140E-04
   6.296 -0.283E-04 -0.283E-04
   6.306 -0.545E-04 -0.545E-04
   6.316 -0.990E-04 -0.990E-04
   6.326 -0.170E-03 -0.170E-03
   6.336 -0.273E-03 -0.273E-03
   6.346 -0.410E-03 -0.410E-03
   6.356 -0.569E-03 -0.569E-03
   6.366 -0.717E-03 -0.717E-03
   6.376 -0.792E-03 -0.792E-03
   6.386 -0.700E-03 -0.700E-03
   6.396 -0.322E-03 -0.322E-03
   6.406  0.464E-03  0.464E-03
   6.416  0.175E-02  0.175E-02
   6.426  0.356E-02  0.356E-02
   6.436  0.581E-02  0.581E-02
   6.446  0.828E-02  0.828E-02
   6.456  0.107E-01  0.107E-01
   6.466  0.126E-01  0.126E-01
   6.476  0.137E-01  0.137E-01
   6.486  0.137E-01  0.137E-01
   6.496  0.127E-01  0.127E-01
   6.506  0.107E-01  0.107E-01
   6.516  0.809E-02  0.809E-02
   6.526  0.537E-02  0.537E-02
   6.536  0.305E-02  0.305E-02
   6.546  0.164E-02  0.164E-02
   6.556  0.153E-02  0.153E-02
   6.566  0.298E-02  0.298E-02
   6.576  0.606E-02  0.606E-02
   6.586  0.107E-01  0.107E-01
   6.596  0.166E-01  0.166E-01
   6.606  0.236E-01  0.236E-01
   6.616  0.312E-01  0.312E-01
   6.626  0.390E-01  0.390E-01
   6.636  0.465E-01  0.465E-01
   6.646  0.531E-01  0.531E-01
   6.656  0.582E-01  0.582E-01
   6.666  0.611E-01  0.611E-01
   6.676  0.613E-01  0.613E-01
   6.686  0.589E-01  0.589E-01
   6.696  0.541E-01  0.541E-01
   6.706  0.480E-01  0.480E-01
   6.716  0.418E-01  0.418E-01
   6.726  0.370E-01  0.370E-01
   6.736  0.347E-01  0.347E-01
   6.746  0.354E-01  0.354E-01
   6.756  0.389E-01  0.389E-01
   6.766  0.443E-01  0.443E-01
   6.776  0.504E-01  0.504E-01
   6.786  0.556E-01  0.556E-01
   6.796  0.587E-01  0.587E-01
   6.806  0.592E-01  0.592E-01
   6.816  0.567E-01  0.567E-01
   6.826  0.516E-01  0.516E-01
   6.836  0.445E-01  0.445E-01
   6.846  0.364E-01  0.364E-01
   6.856  0.280E-01  0.280E-01
   6.866  0.202E-01  0.202E-01
   6.876  0.141E-01  0.141E-01
   6.886  0.103E-01  0.103E-01
   6.896  0.938E-02  0.938E-02
   6.906  0.116E-01  0.116E-01
   6.916  0.167E-01  0.167E-01
   6.926  0.239E-01  0.239E-01
   6.936  0.322E-01  0.322E-01
   6.946  0.401E-01  0.401E-01
   6.956  0.461E-01  0.461E-01
   6.966  0.491E-01  0.491E-01
   6.976  0.487E-01  0.487E-01
   6.986  0.450E-01  0.450E-01
   6.996  0.390E-01  0.390E-01
   7.006  0.325E-01  0.325E-01
   7.016  0.273E-01  0.273E-01
   7.026  0.253E-01  0.253E-01
   7.036  0.282E-01  0.282E-01
   7.046  0.367E-01  0.367E-01
   7.056  0.505E-01  0.505E-01
   7.066  0.684E-01  0.684E-01
   7.076  0.880E-01  0.880E-01
   7.086  0.106E+00  0.106E+00
   7.096  0.121E+00  0.121E+00
   7.106  0.129E+00  0.129E+00
   7.116  0.129E+00  0.129E+00
   7.126  0.122E+00  0.122E+00
   7.136  0.110E+00  0.110E+00
   7.146  0.944E-01  0.944E-01
   7.156  0.795E-01  0.795E-01
   7.166  0.683E-01  0.683E-01
   7.176  0.630E-01  0.630E-01
   7.186  0.648E-01  0.648E-01
   7.196  0.732E-01  0.732E-01
   7.206  0.865E-01  0.865E-01
   7.216  0.102E+00  0.102E+00
   7.226  0.118E+00  0.118E+00
   7.236  0.131E+00  0.131E+00
   7.246  0.140E+00  0.140E+00
   7.256  0.144E+00  0.144E+00
   7.266  0.143E+00  0.143E+00
   7.276  0.139E+00  0.139E+00
   7.286  0.132E+00  0.132E+00
   7.296  0.123E+00  0.123E+00
   7.306  0.114E+00  0.114E+00
   7.316  0.105E+00  0.105E+00
   7.326  0.978E-01  0.978E-01
   7.336  0.941E-01  0.941E-01
   7.346  0.945E-01  0.945E-01
   7.356  0.993E-01  0.993E-01
   7.366  0.108E+00  0.108E+00
   7.376  0.119E+00  0.119E+00
   7.386  0.129E+00  0.129E+00
   7.396  0.137E+00  0.137E+00
   7.406  0.139E+00  0.139E+00
   7.416  0.135E+00  0.135E+00
   7.426  0.125E+00  0.125E+00
   7.436  0.111E+00  0.111E+00
   7.446  0.942E-01  0.942E-01
   7.456  0.770E-01  0.770E-01
   7.466  0.612E-01  0.612E-01
   7.476  0.479E-01  0.479E-01
   7.486  0.377E-01  0.377E-01
   7.496  0.312E-01  0.312E-01
   7.506  0.291E-01  0.291E-01
   7.516  0.321E-01  0.321E-01
   7.526  0.412E-01  0.412E-01
   7.536  0.570E-01  0.570E-01
   7.546  0.794E-01  0.794E-01
   7.556  0.107E+00  0.107E+00
   7.566  0.138E+00  0.138E+00
   7.576  0.169E+00  0.169E+00
   7.586  0.197E+00  0.197E+00
   7.596  0.217E+00  0.217E+00
   7.606  0.226E+00  0.226E+00
   7.616  0.225E+00  0.225E+00
   7.626  0.211E+00  0.211E+00
   7.636  0.187E+00  0.187E+00
   7.646  0.156E+00  0.156E+00
   7.656  0.122E+00  0.122E+00
   7.666  0.899E-01  0.899E-01
   7.676  0.637E-01  0.637E-01
   7.686  0.475E-01  0.475E-01
   7.696  0.440E-01  0.440E-01
   7.706  0.540E-01  0.540E-01
   7.716  0.768E-01  0.768E-01
   7.726  0.110E+00  0.110E+00
   7.736  0.149E+00  0.149E+00
   7.746  0.189E+00  0.189E+00
   7.756  0.227E+00  0.227E+00
   7.766  0.258E+00  0.258E+00
   7.776  0.279E+00  0.279E+00
   7.786  0.291E+00  0.291E+00
   7.796  0.294E+00  0.294E+00
   7.806  0.290E+00  0.290E+00
   7.816  0.283E+00  0.283E+00
   7.826  0.275E+00  0.275E+00
   7.836  0.268E+00  0.268E+00
   7.846  0.262E+00  0.262E+00
   7.856  0.257E+00  0.257E+00
   7.866  0.252E+00  0.252E+00
   7.876  0.245E+00  0.245E+00
   7.886  0.234E+00  0.234E+00
   7.896  0.221E+00  0.221E+00
   7.906  0.207E+00  0.207E+00
   7.916  0.194E+00  0.194E+00
   7.926  0.183E+00  0.183E+00
   7.936  0.178E+00  0.178E+00
   7.946  0.179E+00  0.179E+00
   7.956  0.183E+00  0.183E+00
   7.966  0.191E+00  0.191E+00
   7.976  0.199E+00  0.199E+00
   7.986  0.205E+00  0.205E+00
   7.996  0.208E+00  0.208E+00
   8.006  0.207E+00  0.207E+00
   8.016  0.202E+00  0.202E+00
   8.026  0.194E+00  0.194E+00
   8.036  0.185E+00  0.185E+00
   8.046  0.175E+00  0.175E+00
   8.056  0.166E+00  0.166E+00
   8.066  0.158E+00  0.158E+00
   8.076  0.150E+00  0.150E+00
   8.086  0.144E+00  0.144E+00
   8.096  0.138E+00  0.138E+00
   8.106  0.133E+00  0.133E+00
   8.116  0.130E+00  0.130E+00
   8.126  0.129E+00  0.129E+00
   8.136  0.131E+00  0.131E+00
   8.146  0.135E+00  0.135E+00
   8.156  0.143E+00  0.143E+00
   8.166  0.152E+00  0.152E+00
   8.176  0.162E+00  0.162E+00
   8.186  0.172E+00  0.172E+00
   8.196  0.181E+00  0.181E+00
   8.206  0.187E+00  0.187E+00
   8.216  0.187E+00  0.187E+00
   8.226  0.182E+00  0.182E+00
   8.236  0.171E+00  0.171E+00
   8.246  0.155E+00  0.155E+00
   8.256  0.135E+00  0.135E+00
   8.266  0.115E+00  0.115E+00
   8.276  0.992E-01  0.992E-01
   8.286  0.910E-01  0.910E-01
   8.296  0.938E-01  0.938E-01
   8.306  0.109E+00  0.109E+00
   8.316  0.134E+00  0.134E+00
   8.326  0.168E+00  0.168E+00
   8.336  0.204E+00  0.204E+00
   8.346  0.239E+00  0.239E+00
   8.356  0.267E+00  0.267E+00
   8.366  0.287E+00  0.287E+00
   8.376  0.299E+00  0.299E+00
   8.386  0.307E+00  0.307E+00
   8.396  0.312E+00  0.312E+00
   8.406  0.319E+00  0.319E+00
   8.416  0.328E+00  0.328E+00
   8.426  0.338E+00  0.338E+00
   8.436  0.346E+00  0.346E+00
   8.446  0.348E+00  0.348E+00
   8.456  0.341E+00  0.341E+00
   8.466  0.324E+00  0.324E+00
   8.476  0.297E+00  0.297E+00
   8.486  0.265E+00  0.265E+00
   8.496  0.231E+00  0.231E+00
   8.506  0.199E+00  0.199E+00
   8.516  0.173E+00  0.173E+00
   8.526  0.154E+00  0.154E+00
   8.536  0.141E+00  0.141E+00
   8.546  0.133E+00  0.133E+00
   8.556  0.128E+00  0.128E+00
   8.566  0.124E+00  0.124E+00
   8.576  0.120E+00  0.120E+00
   8.586  0.116E+00  0.116E+00
   8.596  0.112E+00  0.112E+00
   8.606  0.108E+00  0.108E+00
   8.616  0.105E+00  0.105E+00
   8.626  0.102E+00  0.102E+00
   8.636  0.996E-01  0.996E-01
   8.646  0.967E-01  0.967E-01
   8.656  0.924E-01  0.924E-01
   8.666  0.858E-01  0.858E-01
   8.676  0.770E-01  0.770E-01
   8.686  0.666E-01  0.666E-01
   8.696  0.562E-01  0.562E-01
   8.706  0.475E-01  0.475E-01
   8.716  0.425E-01  0.425E-01
   8.726  0.425E-01  0.425E-01
   8.736  0.478E-01  0.478E-01
   8.746  0.577E-01  0.577E-01
   8.756  0.706E-01  0.706E-01
   8.766  0.842E-01  0.842E-01
   8.776  0.966E-01  0.966E-01
   8.786  0.107E+00  0.107E+00
   8.796  0.114E+00  0.114E+00
   8.806  0.119E+00  0.119E+00
   8.816  0.123E+00  0.123E+00
   8.826  0.127E+00  0.127E+00
   8.836  0.132E+00  0.132E+00
   8.846  0.136E+00  0.136E+00
   8.856  0.138E+00  0.138E+00
   8.866  0.136E+00  0.136E+00
   8.876  0.132E+00  0.132E+00
   8.886  0.124E+00  0.124E+00
   8.896  0.114E+00  0.114E+00
   8.906  0.105E+00  0.105E+00
   8.916  0.978E-01  0.978E-01
   8.926  0.941E-01  0.941E-01
   8.936  0.935E-01  0.935E-01
   8.946  0.948E-01  0.948E-01
   8.956  0.965E-01  0.965E-01
   8.966  0.968E-01  0.968E-01
   8.976  0.950E-01  0.950E-01
   8.986  0.912E-01  0.912E-01
   8.996  0.864E-01  0.864E-01
   9.006  0.822E-01  0.822E-01
   9.016  0.802E-01  0.802E-01
   9.026  0.814E-01  0.814E-01
   9.036  0.862E-01  0.862E-01
   9.046  0.940E-01  0.940E-01
   9.056  0.104E+00  0.104E+00
   9.066  0.113E+00  0.113E+00
   9.076  0.121E+00  0.121E+00
   9.086  0.127E+00  0.127E+00
   9.096  0.128E+00  0.128E+00
   9.106  0.125E+00  0.125E+00
   9.116  0.119E+00  0.119E+00
   9.126  0.109E+00  0.109E+00
   9.136  0.982E-01  0.982E-01
   9.146  0.868E-01  0.868E-01
   9.156  0.772E-01  0.772E-01
   9.166  0.711E-01  0.711E-01
   9.176  0.698E-01  0.698E-01
   9.186  0.739E-01  0.739E-01
   9.196  0.833E-01  0.833E-01
   9.206  0.968E-01  0.968E-01
   9.216  0.112E+00  0.112E+00
   9.226  0.127E+00  0.127E+00
   9.236  0.139E+00  0.139E+00
   9.246  0.145E+00  0.145E+00
   9.256  0.146E+00  0.146E+00
   9.266  0.140E+00  0.140E+00
   9.276  0.131E+00  0.131E+00
   9.286  0.121E+00  0.121E+00
   9.296  0.112E+00  0.112E+00
   9.306  0.106E+00  0.106E+00
   9.316  0.103E+00  0.103E+00
   9.326  0.103E+00  0.103E+00
   9.336  0.102E+00  0.102E+00
   9.346  0.101E+00  0.101E+00
   9.356  0.962E-01  0.962E-01
   9.366  0.888E-01  0.888E-01
   9.376  0.792E-01  0.792E-01
   9.386  0.689E-01  0.689E-01
   9.396  0.593E-01  0.593E-01
   9.406  0.512E-01  0.512E-01
   9.416  0.450E-01  0.450E-01
   9.426  0.404E-01  0.404E-01
   9.436  0.371E-01  0.371E-01
   9.446  0.344E-01  0.344E-01
   9.456  0.326E-01  0.326E-01
   9.466  0.321E-01  0.321E-01
   9.476  0.343E-01  0.343E-01
   9.486  0.407E-01  0.407E-01
   9.496  0.531E-01  0.531E-01
   9.506  0.725E-01  0.725E-01
   9.516  0.988E-01  0.988E-01
   9.526  0.131E+00  0.131E+00
   9.536  0.165E+00  0.165E+00
   9.546  0.198E+00  0.198E+00
   9.556  0.224E+00  0.224E+00
   9.566  0.239E+00  0.239E+00
   9.576  0.242E+00  0.242E+00
   9.586  0.232E+00  0.232E+00
   9.596  0.211E+00  0.211E+00
   9.606  0.185E+00  0.185E+00
   9.616  0.156E+00  0.156E+00
   9.626  0.128E+00  0.128E+00
   9.636  0.104E+00  0.104E+00
   9.646  0.853E-01  0.853E-01
   9.656  0.709E-01  0.709E-01
   9.666  0.602E-01  0.602E-01
   9.676  0.523E-01  0.523E-01
   9.686  0.468E-01  0.468E-01
   9.696  0.432E-01  0.432E-01
   9.706  0.415E-01  0.415E-01
   9.716  0.415E-01  0.415E-01
   9.726  0.430E-01  0.430E-01
   9.736  0.456E-01  0.456E-01
   9.746  0.491E-01  0.491E-01
   9.756  0.534E-01  0.534E-01
   9.766  0.584E-01  0.584E-01
   9.776  0.641E-01  0.641E-01
   9.786  0.704E-01  0.704E-01
   9.796  0.769E-01  0.769E-01
   9.806  0.829E-01  0.829E-01
   9.816  0.877E-01  0.877E-01
   9.826  0.907E-01  0.907E-01
   9.836  0.915E-01  0.915E-01
   9.846  0.898E-01  0.898E-01
   9.856  0.859E-01  0.859E-01
   9.866  0.803E-01  0.803E-01
   9.876  0.736E-01  0.736E-01
   9.886  0.670E-01  0.670E-01
   9.896  0.618E-01  0.618E-01
   9.906  0.598E-01  0.598E-01
   9.916  0.628E-01  0.628E-01
   9.926  0.722E-01  0.722E-01
   9.936  0.885E-01  0.885E-01
   9.946  0.111E+00  0.111E+00
   9.956  0.137E+00  0.137E+00
   9.966  0.163E+00  0.163E+00
   9.976  0.185E+00  0.185E+00
   9.986  0.197E+00  0.197E+00
   9.996  0.198E+00  0.198E+00
  10.006  0.186E+00  0.186E+00
  10.016  0.164E+00  0.164E+00
  10.026  0.134E+00  0.134E+00
  10.036  0.101E+00  0.101E+00
  10.046  0.711E-01  0.711E-01
  10.056  0.478E-01  0.478E-01
  10.066  0.338E-01  0.338E-01
  10.076  0.296E-01  0.296E-01
  10.086  0.339E-01  0.339E-01
  10.096  0.438E-01  0.438E-01
  10.106  0.559E-01  0.559E-01
  10.116  0.666E-01  0.666E-01
  10.126  0.731E-01  0.731E-01
  10.136  0.739E-01  0.739E-01
  10.146  0.687E-01  0.687E-01
  10.156  0.586E-01  0.586E-01
  10.166  0.454E-01  0.454E-01
  10.176  0.314E-01  0.314E-01
  10.186  0.189E-01  0.189E-01
  10.196  0.954E-02  0.954E-02
  10.206  0.445E-02  0.445E-02
  10.216  0.398E-02  0.398E-02
  10.226  0.791E-02  0.791E-02
  10.236  0.156E-01  0.156E-01
  10.246  0.260E-01  0.260E-01
  10.256  0.380E-01  0.380E-01
  10.266  0.505E-01  0.505E-01
  10.276  0.623E-01  0.623E-01
  10.286  0.727E-01  0.727E-01
  10.296  0.808E-01  0.808E-01
  10.306  0.864E-01  0.864E-01
  10.316  0.892E-01  0.892E-01
  10.326  0.896E-01  0.896E-01
  10.336  0.881E-01  0.881E-01
  10.346  0.852E-01  0.852E-01
  10.356  0.818E-01  0.818E-01
  10.366  0.781E-01  0.781E-01
  10.376  0.746E-01  0.746E-01
  10.386  0.709E-01  0.709E-01
  10.396  0.670E-01  0.670E-01
  10.406  0.625E-01  0.625E-01
  10.416  0.578E-01  0.578E-01
  10.426  0.535E-01  0.535E-01
  10.436  0.510E-01  0.510E-01
  10.446  0.518E-01  0.518E-01
  10.456  0.573E-01  0.573E-01
  10.466  0.684E-01  0.684E-01
  10.476  0.848E-01  0.848E-01
  10.486  0.105E+00  0.105E+00
  10.496  0.127E+00  0.127E+00
  10.506  0.147E+00  0.147E+00
  10.516  0.163E+00  0.163E+00
  10.526  0.172E+00  0.172E+00
  10.536  0.174E+00  0.174E+00
  10.546  0.170E+00  0.170E+00
  10.556  0.160E+00  0.160E+00
  10.566  0.145E+00  0.145E+00
  10.576  0.128E+00  0.128E+00
  10.586  0.109E+00  0.109E+00
  10.596  0.903E-01  0.903E-01
  10.606  0.721E-01  0.721E-01
  10.616  0.555E-01  0.555E-01
  10.626  0.417E-01  0.417E-01
  10.636  0.320E-01  0.320E-01
  10.646  0.273E-01  0.273E-01
  10.656  0.283E-01  0.283E-01
  10.666  0.346E-01  0.346E-01
  10.676  0.455E-01  0.455E-01
  10.686  0.592E-01  0.592E-01
  10.696  0.737E-01  0.737E-01
  10.706  0.867E-01  0.867E-01
  10.716  0.962E-01  0.962E-01
  10.726  0.101E+00  0.101E+00
  10.736  0.100E+00  0.100E+00
  10.746  0.950E-01  0.950E-01
  10.756  0.862E-01  0.862E-01
  10.766  0.762E-01  0.762E-01
  10.776  0.676E-01  0.676E-01
  10.786  0.627E-01  0.627E-01
  10.796  0.634E-01  0.634E-01
  10.806  0.702E-01  0.702E-01
  10.816  0.821E-01  0.821E-01
  10.826  0.969E-01  0.969E-01
  10.836  0.112E+00  0.112E+00
  10.846  0.123E+00  0.123E+00
  10.856  0.128E+00  0.128E+00
  10.866  0.125E+00  0.125E+00
  10.876  0.114E+00  0.114E+00
  10.886  0.978E-01  0.978E-01
  10.896  0.776E-01  0.776E-01
  10.906  0.565E-01  0.565E-01
  10.916  0.371E-01  0.371E-01
  10.926  0.213E-01  0.213E-01
  10.936  0.998E-02  0.998E-02
  10.946  0.361E-02  0.361E-02
  10.956  0.194E-02  0.194E-02
  10.966  0.445E-02  0.445E-02
  10.976  0.105E-01  0.105E-01
  10.986  0.192E-01  0.192E-01
  10.996  0.298E-01  0.298E-01
  11.006  0.412E-01  0.412E-01
  11.016  0.525E-01  0.525E-01
  11.026  0.625E-01  0.625E-01
  11.036  0.701E-01  0.701E-01
  11.046  0.746E-01  0.746E-01
  11.056  0.754E-01  0.754E-01
  11.066  0.727E-01  0.727E-01
  11.076  0.674E-01  0.674E-01
  11.086  0.606E-01  0.606E-01
  11.096  0.540E-01  0.540E-01
  11.106  0.492E-01  0.492E-01
  11.116  0.476E-01  0.476E-01
  11.126  0.501E-01  0.501E-01
  11.136  0.572E-01  0.572E-01
  11.146  0.683E-01  0.683E-01
  11.156  0.822E-01  0.822E-01
  11.166  0.972E-01  0.972E-01
  11.176  0.111E+00  0.111E+00
  11.186  0.122E+00  0.122E+00
  11.196  0.128E+00  0.128E+00
  11.206  0.128E+00  0.128E+00
  11.216  0.123E+00  0.123E+00
  11.226  0.113E+00  0.113E+00
  11.236  0.989E-01  0.989E-01
  11.246  0.835E-01  0.835E-01
  11.256  0.683E-01  0.683E-01
  11.266  0.548E-01  0.548E-01
  11.276  0.445E-01  0.445E-01
  11.286  0.385E-01  0.385E-01
  11.296  0.375E-01  0.375E-01
  11.306  0.418E-01  0.418E-01
  11.316  0.509E-01  0.509E-01
  11.326  0.640E-01  0.640E-01
  11.336  0.793E-01  0.793E-01
  11.346  0.946E-01  0.946E-01
  11.356  0.108E+00  0.108E+00
  11.366  0.117E+00  0.117E+00
  11.376  0.120E+00  0.120E+00
  11.386  0.118E+00  0.118E+00
  11.396  0.110E+00  0.110E+00
  11.406  0.990E-01  0.990E-01
  11.416  0.857E-01  0.857E-01
  11.426  0.723E-01  0.723E-01
  11.436  0.604E-01  0.604E-01
  11.446  0.512E-01  0.512E-01
  11.456  0.452E-01  0.452E-01
  11.466  0.427E-01  0.427E-01
  11.476  0.431E-01  0.431E-01
  11.486  0.459E-01  0.459E-01
  11.496  0.501E-01  0.501E-01
  11.506  0.549E-01  0.549E-01
  11.516  0.593E-01  0.593E-01
  11.526  0.626E-01  0.626E-01
  11.536  0.644E-01  0.644E-01
  11.546  0.647E-01  0.647E-01
  11.556  0.638E-01  0.638E-01
  11.566  0.621E-01  0.621E-01
  11.576  0.600E-01  0.600E-01
  11.586  0.581E-01  0.581E-01
  11.596  0.565E-01  0.565E-01
  11.606  0.549E-01  0.549E-01
  11.616  0.529E-01  0.529E-01
  11.626  0.500E-01  0.500E-01
  11.636  0.457E-01  0.457E-01
  11.646  0.399E-01  0.399E-01
  11.656  0.330E-01  0.330E-01
  11.666  0.258E-01  0.258E-01
  11.676  0.193E-01  0.193E-01
  11.686  0.148E-01  0.148E-01
  11.696  0.134E-01  0.134E-01
  11.706  0.159E-01  0.159E-01
  11.716  0.226E-01  0.226E-01
  11.726  0.332E-01  0.332E-01
  11.736  0.469E-01  0.469E-01
  11.746  0.629E-01  0.629E-01
  11.756  0.800E-01  0.800E-01
  11.766  0.971E-01  0.971E-01
  11.776  0.113E+00  0.113E+00
  11.786  0.127E+00  0.127E+00
  11.796  0.138E+00  0.138E+00
  11.806  0.145E+00  0.145E+00
  11.816  0.148E+00  0.148E+00
  11.826  0.146E+00  0.146E+00
  11.836  0.140E+00  0.140E+00
  11.846  0.130E+00  0.130E+00
  11.856  0.116E+00  0.116E+00
  11.866  0.101E+00  0.101E+00
  11.876  0.844E-01  0.844E-01
  11.886  0.680E-01  0.680E-01
  11.896  0.528E-01  0.528E-01
  11.906  0.396E-01  0.396E-01
  11.916  0.292E-01  0.292E-01
  11.926  0.223E-01  0.223E-01
  11.936  0.190E-01  0.190E-01
  11.946  0.193E-01  0.193E-01
  11.956  0.228E-01  0.228E-01
  11.966  0.286E-01  0.286E-01
  11.976  0.357E-01  0.357E-01
  11.986  0.432E-01  0.432E-01
  11.996  0.499E-01  0.499E-01
  12.006  0.549E-01  0.549E-01
  12.016  0.576E-01  0.576E-01
  12.026  0.574E-01  0.574E-01
  12.036  0.542E-01  0.542E-01
  12.046  0.482E-01  0.482E-01
  12.056  0.401E-01  0.401E-01
  12.066  0.306E-01  0.306E-01
  12.076  0.207E-01  0.207E-01
  12.086  0.115E-01  0.115E-01
  12.096  0.407E-02  0.407E-02
  12.106 -0.934E-03 -0.934E-03
  12.116 -0.283E-02 -0.283E-02
  12.126 -0.111E-02 -0.111E-02
  12.136  0.460E-02  0.460E-02
  12.146  0.145E-01  0.145E-01
  12.156  0.286E-01  0.286E-01
  12.166  0.464E-01  0.464E-01
  12.176  0.666E-01  0.666E-01
  12.186  0.876E-01  0.876E-01
  12.196  0.107E+00  0.107E+00
  12.206  0.122E+00  0.122E+00
  12.216  0.131E+00  0.131E+00
  12.226  0.132E+00  0.132E+00
  12.236  0.125E+00  0.125E+00
  12.246  0.111E+00  0.111E+00
  12.256  0.913E-01  0.913E-01
  12.266  0.691E-01  0.691E-01
  12.276  0.471E-01  0.471E-01
  12.286  0.277E-01  0.277E-01
  12.296  0.124E-01  0.124E-01
  12.306  0.179E-02  0.179E-02
  12.316 -0.421E-02 -0.421E-02
  12.326 -0.619E-02 -0.619E-02
  12.336 -0.495E-02 -0.495E-02
  12.346 -0.115E-02 -0.115E-02
  12.356  0.476E-02  0.476E-02
  12.366  0.126E-01  0.126E-01
  12.376  0.223E-01  0.223E-01
  12.386  0.338E-01  0.338E-01
  12.396  0.468E-01  0.468E-01
  12.406  0.608E-01  0.608E-01
  12.416  0.749E-01  0.749E-01
  12.426  0.879E-01  0.879E-01
  12.436  0.987E-01  0.987E-01
  12.446  0.106E+00  0.106E+00
  12.456  0.111E+00  0.111E+00
  12.466  0.111E+00  0.111E+00
  12.476  0.108E+00  0.108E+00
  12.486  0.103E+00  0.103E+00
  12.496  0.948E-01  0.948E-01
  12.506  0.855E-01  0.855E-01
  12.516  0.750E-01  0.750E-01
  12.526  0.639E-01  0.639E-01
  12.536  0.527E-01  0.527E-01
  12.546  0.417E-01  0.417E-01
  12.556  0.316E-01  0.316E-01
  12.566  0.227E-01  0.227E-01
  12.576  0.153E-01  0.153E-01
  12.586  0.953E-02  0.953E-02
  12.596  0.521E-02  0.521E-02
  12.606  0.212E-02  0.212E-02
  12.616 -0.729E-04 -0.729E-04
  12.626 -0.165E-02 -0.165E-02
  12.636 -0.281E-02 -0.281E-02
  12.646 -0.364E-02 -0.364E-02
  12.656 -0.406E-02 -0.406E-02
  12.666 -0.387E-02 -0.387E-02
  12.676 -0.271E-02 -0.271E-02
  12.686 -0.227E-03 -0.227E-03
  12.696  0.393E-02  0.393E-02
  12.706  0.994E-02  0.994E-02
  12.716  0.177E-01  0.177E-01
  12.726  0.268E-01  0.268E-01
  12.736  0.364E-01  0.364E-01
  12.746  0.458E-01  0.458E-01
  12.756  0.539E-01  0.539E-01
  12.766  0.601E-01  0.601E-01
  12.776  0.642E-01  0.642E-01
  12.786  0.662E-01  0.662E-01
  12.796  0.666E-01  0.666E-01
  12.806  0.658E-01  0.658E-01
  12.816  0.644E-01  0.644E-01
  12.826  0.625E-01  0.625E-01
  12.836  0.599E-01  0.599E-01
  12.846  0.563E-01  0.563E-01
  12.856  0.515E-01  0.515E-01
  12.866  0.454E-01  0.454E-01
  12.876  0.385E-01  0.385E-01
  12.886  0.316E-01  0.316E-01
  12.896  0.259E-01  0.259E-01
  12.906  0.225E-01  0.225E-01
  12.916  0.222E-01  0.222E-01
  12.926  0.254E-01  0.254E-01
  12.936  0.317E-01  0.317E-01
  12.946  0.397E-01  0.397E-01
  12.956  0.479E-01  0.479E-01
  12.966  0.545E-01  0.545E-01
  12.976  0.579E-01  0.579E-01
  12.986  0.573E-01  0.573E-01
  12.996  0.526E-01  0.526E-01
  13.006  0.445E-01  0.445E-01
  13.016  0.344E-01  0.344E-01
  13.026  0.237E-01  0.237E-01
  13.036  0.139E-01  0.139E-01
  13.046  0.603E-02  0.603E-02
  13.056  0.821E-03  0.821E-03
  13.066 -0.155E-02 -0.155E-02
  13.076 -0.121E-02 -0.121E-02
  13.086  0.152E-02  0.152E-02
  13.096  0.622E-02  0.622E-02
  13.106  0.125E-01  0.125E-01
  13.116  0.199E-01  0.199E-01
  13.126  0.282E-01  0.282E-01
  13.136  0.370E-01  0.370E-01
  13.146  0.460E-01  0.460E-01
  13.156  0.548E-01  0.548E-01
  13.166  0.628E-01  0.628E-01
  13.176  0.693E-01  0.693E-01
  13.186  0.737E-01  0.737E-01
  13.196  0.752E-01  0.752E-01
  13.206  0.737E-01  0.737E-01
  13.216  0.693E-01  0.693E-01
  13.226  0.626E-01  0.626E-01
  13.236  0.544E-01  0.544E-01
  13.246  0.457E-01  0.457E-01
  13.256  0.373E-01  0.373E-01
  13.266  0.297E-01  0.297E-01
  13.276  0.231E-01  0.231E-01
  13.286  0.176E-01  0.176E-01
  13.296  0.129E-01  0.129E-01
  13.306  0.904E-02  0.904E-02
  13.316  0.580E-02  0.580E-02
  13.326  0.319E-02  0.319E-02
  13.336  0.122E-02  0.122E-02
  13.346 -0.145E-03 -0.145E-03
  13.356 -0.957E-03 -0.957E-03
  13.366 -0.132E-02 -0.132E-02
  13.376 -0.137E-02 -0.137E-02
  13.386 -0.123E-02 -0.123E-02
  13.396 -0.101E-02 -0.101E-02
  13.406 -0.798E-03 -0.798E-03
  13.416 -0.638E-03 -0.638E-03
  13.426 -0.550E-03 -0.550E-03
  13.436 -0.530E-03 -0.530E-03
  13.446 -0.554E-03 -0.554E-03
  13.456 -0.581E-03 -0.581E-03
  13.466 -0.553E-03 -0.553E-03
  13.476 -0.393E-03 -0.393E-03
  13.486 -0.163E-04 -0.163E-04
  13.496  0.656E-03  0.656E-03
  13.506  0.168E-02  0.168E-02
  13.516  0.305E-02  0.305E-02
  13.526  0.469E-02  0.469E-02
  13.536  0.647E-02  0.647E-02
  13.546  0.815E-02  0.815E-02
  13.556  0.952E-02  0.952E-02
  13.566  0.104E-01  0.104E-01
  13.576  0.106E-01  0.106E-01
  13.586  0.104E-01  0.104E-01
  13.596  0.981E-02  0.981E-02
  13.606  0.933E-02  0.933E-02
  13.616  0.937E-02  0.937E-02
  13.626  0.103E-01  0.103E-01
  13.636  0.123E-01  0.123E-01
  13.646  0.152E-01  0.152E-01
  13.656  0.188E-01  0.188E-01
  13.666  0.224E-01  0.224E-01
  13.676  0.253E-01  0.253E-01
  13.686  0.272E-01  0.272E-01
  13.696  0.277E-01  0.277E-01
  13.706  0.271E-01  0.271E-01
  13.716  0.260E-01  0.260E-01
  13.726  0.250E-01  0.250E-01
  13.736  0.248E-01  0.248E-01
  13.746  0.257E-01  0.257E-01
  13.756  0.276E-01  0.276E-01
  13.766  0.299E-01  0.299E-01
  13.776  0.320E-01  0.320E-01
  13.786  0.329E-01  0.329E-01
  13.796  0.321E-01  0.321E-01
  13.806  0.294E-01  0.294E-01
  13.816  0.251E-01  0.251E-01
  13.826  0.196E-01  0.196E-01
  13.836  0.139E-01  0.139E-01
  13.846  0.852E-02  0.852E-02
  13.856  0.403E-02  0.403E-02
  13.866  0.706E-03  0.706E-03
  13.876 -0.140E-02 -0.140E-02
  13.886 -0.238E-02 -0.238E-02
  13.896 -0.239E-02 -0.239E-02
  13.906 -0.157E-02 -0.157E-02
  13.916 -0.242E-04 -0.242E-04
  13.926  0.213E-02  0.213E-02
  13.936  0.478E-02  0.478E-02
  13.946  0.769E-02  0.769E-02
  13.956  0.106E-01  0.106E-01
  13.966  0.131E-01  0.131E-01
  13.976  0.148E-01  0.148E-01
  13.986  0.155E-01  0.155E-01
  13.996  0.152E-01  0.152E-01
  14.006  0.137E-01  0.137E-01
  14.016  0.115E-01  0.115E-01
  14.026  0.885E-02  0.885E-02
  14.036  0.615E-02  0.615E-02
  14.046  0.372E-02  0.372E-02
  14.056  0.178E-02  0.178E-02
  14.066  0.398E-03  0.398E-03
  14.076 -0.465E-03 -0.465E-03
  14.086 -0.922E-03 -0.922E-03
  14.096 -0.112E-02 -0.112E-02
  14.106 -0.120E-02 -0.120E-02
  14.116 -0.125E-02 -0.125E-02
  14.126 -0.133E-02 -0.133E-02
  14.136 -0.142E-02 -0.142E-02
  14.146 -0.142E-02 -0.142E-02
  14.156 -0.120E-02 -0.120E-02
  14.166 -0.546E-03 -0.546E-03
  14.176  0.731E-03  0.731E-03
  14.186  0.279E-02  0.279E-02
  14.196  0.566E-02  0.566E-02
  14.206  0.923E-02  0.923E-02
  14.216  0.132E-01  0.132E-01
  14.226  0.170E-01  0.170E-01
  14.236  0.202E-01  0.202E-01
  14.246  0.222E-01  0.222E-01
  14.256  0.227E-01  0.227E-01
  14.266  0.216E-01  0.216E-01
  14.276  0.190E-01  0.190E-01
  14.286  0.155E-01  0.155E-01
  14.296  0.116E-01  0.116E-01
  14.306  0.771E-02  0.771E-02
  14.316  0.439E-02  0.439E-02
  14.326  0.184E-02  0.184E-02
  14.336  0.121E-03  0.121E-03
  14.346 -0.858E-03 -0.858E-03
  14.356 -0.127E-02 -0.127E-02
  14.366 -0.130E-02 -0.130E-02
  14.376 -0.112E-02 -0.112E-02
  14.386 -0.840E-03 -0.840E-03
  14.396 -0.541E-03 -0.541E-03
  14.406 -0.251E-03 -0.251E-03
  14.416  0.176E-04  0.176E-04
  14.426  0.260E-03  0.260E-03
  14.436  0.471E-03  0.471E-03
  14.446  0.643E-03  0.643E-03
  14.456  0.777E-03  0.777E-03
  14.466  0.887E-03  0.887E-03
  14.476  0.101E-02  0.101E-02
  14.486  0.120E-02  0.120E-02
  14.496  0.152E-02  0.152E-02
  14.506  0.204E-02  0.204E-02
  14.516  0.278E-02  0.278E-02
  14.526  0.373E-02  0.373E-02
  14.536  0.484E-02  0.484E-02
  14.546  0.603E-02  0.603E-02
  14.556  0.722E-02  0.722E-02
  14.566  0.832E-02  0.832E-02
  14.576  0.928E-02  0.928E-02
  14.586  0.100E-01  0.100E-01
  14.596  0.106E-01  0.106E-01
  14.606  0.109E-01  0.109E-01
  14.616  0.108E-01  0.108E-01
  14.626  0.104E-01  0.104E-01
  14.636  0.954E-02  0.954E-02
  14.646  0.831E-02  0.831E-02
  14.656  0.679E-02  0.679E-02
  14.666  0.511E-02  0.511E-02
  14.676  0.344E-02  0.344E-02
  14.686  0.196E-02  0.196E-02
  14.696  0.823E-03  0.823E-03
  14.706  0.125E-03  0.125E-03
  14.716 -0.809E-04 -0.809E-04
  14.726  0.205E-03  0.205E-03
  14.736  0.933E-03  0.933E-03
  14.746  0.201E-02  0.201E-02
  14.756  0.328E-02  0.328E-02
  14.766  0.458E-02  0.458E-02
  14.776  0.571E-02  0.571E-02
  14.786  0.650E-02  0.650E-02
  14.796  0.683E-02  0.683E-02
  14.806  0.665E-02  0.665E-02
  14.816  0.601E-02  0.601E-02
  14.826  0.502E-02  0.502E-02
  14.836  0.384E-02  0.384E-02
  14.846  0.265E-02  0.265E-02
  14.856  0.159E-02  0.159E-02
  14.866  0.753E-03  0.753E-03
  14.876  0.167E-03  0.167E-03
  14.886 -0.184E-03 -0.184E-03
  14.896 -0.345E-03 -0.345E-03
  14.906 -0.377E-03 -0.377E-03
  14.916 -0.335E-03 -0.335E-03
  14.926 -0.262E-03 -0.262E-03
  14.936 -0.187E-03 -0.187E-03
  14.946 -0.124E-03 -0.124E-03
  14.956 -0.762E-04 -0.762E-04
  14.966 -0.441E-04 -0.441E-04
  14.976 -0.241E-04 -0.241E-04
  14.986 -0.125E-04 -0.125E-04
  14.996 -0.611E-05 -0.611E-05
  15.006 -0.284E-05 -0.284E-05
  15.016 -0.126E-05 -0.126E-05
  15.026 -0.528E-06 -0.528E-06
  15.036 -0.212E-06 -0.212E-06
  15.046 -0.808E-07 -0.808E-07
  15.056 -0.294E-07 -0.294E-07
  15.066 -0.102E-07 -0.102E-07
  15.076 -0.338E-08 -0.338E-08
  15.086 -0.107E-08 -0.107E-08
  15.096 -0.322E-09 -0.322E-09
  15.106 -0.929E-10 -0.929E-10
  15.116 -0.256E-10 -0.256E-10
  15.126 -0.673E-11 -0.673E-11
  15.136 -0.169E-11 -0.169E-11
  15.146 -0.406E-12 -0.406E-12
  15.156  0.000E+00  0.000E+00
  15.166  0.000E+00  0.000E+00
  15.176  0.000E+00  0.000E+00
  15.186  0.000E+00  0.000E+00
  15.196  0.000E+00  0.000E+00
  15.206  0.000E+00  0.000E+00
  15.216  0.000E+00  0.000E+00
  15.226  0.000E+00  0.000E+00
  15.236  0.000E+00  0.000E+00
  15.246  0.000E+00  0.000E+00
  15.256  0.000E+00  0.000E+00
  15.266  0.000E+00  0.000E+00
  15.276  0.000E+00  0.000E+00
  15.286  0.000E+00  0.000E+00
  15.296  0.000E+00  0.000E+00
  15.306  0.000E+00  0.000E+00
  15.316 -0.792E-21 -0.792E-21
  15.326 -0.327E-20 -0.327E-20
  15.336 -0.129E-19 -0.129E-19
  15.346 -0.488E-19 -0.488E-19
  15.356 -0.176E-18 -0.176E-18
  15.366 -0.607E-18 -0.607E-18
  15.376 -0.200E-17 -0.200E-17
  15.386 -0.628E-17 -0.628E-17
  15.396 -0.188E-16 -0.188E-16
  15.406 -0.539E-16 -0.539E-16
  15.416 -0.147E-15 -0.147E-15
  15.426 -0.382E-15 -0.382E-15
  15.436 -0.948E-15 -0.948E-15
  15.446 -0.224E-14 -0.224E-14
  15.456 -0.502E-14 -0.502E-14
  15.466 -0.107E-13 -0.107E-13
  15.476 -0.217E-13 -0.217E-13
  15.486 -0.416E-13 -0.416E-13
  15.496 -0.756E-13 -0.756E-13
  15.506 -0.129E-12 -0.129E-12
  15.516 -0.208E-12 -0.208E-12
  15.526 -0.311E-12 -0.311E-12
  15.536 -0.431E-12 -0.431E-12
  15.546 -0.541E-12 -0.541E-12
  15.556 -0.594E-12 -0.594E-12
  15.566 -0.520E-12 -0.520E-12
  15.576 -0.228E-12 -0.228E-12
  15.586  0.375E-12  0.375E-12
  15.596  0.136E-11  0.136E-11
  15.606  0.273E-11  0.273E-11
  15.616  0.444E-11  0.444E-11
  15.626  0.633E-11  0.633E-11
  15.636  0.816E-11  0.816E-11
  15.646  0.968E-11  0.968E-11
  15.656  0.106E-10  0.106E-10
  15.666  0.108E-10  0.108E-10
  15.676  0.103E-10  0.103E-10
  15.686  0.907E-11  0.907E-11
  15.696  0.739E-11  0.739E-11
  15.706  0.550E-11  0.550E-11
  15.716  0.367E-11  0.367E-11
  15.726  0.209E-11  0.209E-11
  15.736  0.879E-12  0.879E-12
  15.746  0.684E-13  0.684E-13
  15.756 -0.388E-12 -0.388E-12
  15.766 -0.574E-12 -0.574E-12
  15.776 -0.582E-12 -0.582E-12
  15.786 -0.496E-12 -0.496E-12
  15.796 -0.378E-12 -0.378E-12
  15.806 -0.263E-12 -0.263E-12
  15.816 -0.170E-12 -0.170E-12
  15.826 -0.103E-12 -0.103E-12
  15.836 -0.587E-13 -0.587E-13
  15.846 -0.315E-13 -0.315E-13
  15.856 -0.160E-13 -0.160E-13
  15.866 -0.775E-14 -0.775E-14
  15.876 -0.355E-14 -0.355E-14
